specden
3
2.418884287180845E-005 ps-1 in (Eh/hbar)
4.5663352672E-6 cm-1 in (Eh/hbar)
0 0 0 0
0.100219 0.681727 0.968735 3.51405
0.200439 1.36017 1.93193 6.99976
0.300658 2.03211 2.88414 10.4292
0.400878 2.69438 3.82003 13.7753
0.501097 3.34396 4.73453 17.0122
0.601317 3.97802 5.62283 20.1156
0.701536 4.59389 6.48047 23.0633
0.801756 5.18918 7.3034 25.8353
0.901975 5.76173 8.08804 28.4141
1.00219 6.30968 8.83128 30.7849
1.10241 6.83148 9.53055 32.9359
1.20263 7.32589 10.1838 34.8584
1.30285 7.79201 10.7896 36.5465
1.40307 8.22923 11.347 37.9978
1.50329 8.63729 11.8557 39.2126
1.60351 9.01624 12.316 40.1943
1.70373 9.36641 12.7284 40.9491
1.80395 9.68842 13.0942 41.4858
1.90417 9.98312 13.4151 41.8155
2.00439 10.2516 13.6932 41.9513
2.10461 10.4952 13.9307 41.9085
2.20483 10.7153 14.1306 41.7033
2.30505 10.9135 14.2957 41.3535
2.40527 11.0915 14.4292 40.8776
2.50549 11.2509 14.5342 40.2943
2.60571 11.3937 14.6142 39.6228
2.70593 11.5215 14.6725 38.8818
2.80615 11.636 14.7124 38.0897
2.90636 11.7389 14.7369 37.264
3.00658 11.8318 14.7492 36.4213
3.1068 11.9161 14.7522 35.5768
3.20702 11.9932 14.7484 34.7445
3.30724 12.0642 14.7402 33.9367
3.40746 12.1302 14.7297 33.164
3.50768 12.1921 14.7188 32.4355
3.6079 12.2505 14.709 31.7583
3.70812 12.3061 14.7014 31.1381
3.80834 12.3593 14.6971 30.5786
3.90856 12.4102 14.6968 30.0823
4.00878 12.4592 14.7008 29.6499
4.109 12.5061 14.7092 29.281
4.20922 12.5509 14.7221 28.9739
4.30944 12.5934 14.7392 28.7259
4.40966 12.6334 14.76 28.5337
4.50988 12.6706 14.7841 28.393
4.6101 12.7045 14.8108 28.2993
4.71032 12.735 14.8393 28.2478
4.81053 12.7615 14.869 28.2333
4.91075 12.7839 14.899 28.2511
5.01097 12.8017 14.9287 28.2962
5.11119 12.8147 14.9574 28.3643
5.21141 12.8226 14.9843 28.4511
5.31163 12.8252 15.0089 28.5529
5.41185 12.8226 15.0307 28.6667
5.51207 12.8145 15.0494 28.7898
5.61229 12.801 15.0646 28.92
5.71251 12.7821 15.0762 29.0559
5.81273 12.758 15.084 29.1963
5.91295 12.729 15.0882 29.3406
6.01317 12.6951 15.0888 29.4886
6.11339 12.6567 15.086 29.6404
6.21361 12.6141 15.08 29.7964
6.31383 12.5676 15.0712 29.9571
6.41405 12.5177 15.0599 30.1231
6.51427 12.4648 15.0466 30.2952
6.61449 12.4092 15.0315 30.4739
6.7147 12.3514 15.0153 30.6598
6.81492 12.2917 14.9982 30.8531
6.91514 12.2307 14.9806 31.054
7.01536 12.1688 14.963 31.2624
7.11558 12.1062 14.9457 31.4779
7.2158 12.0436 14.9289 31.7
7.31602 11.9811 14.9131 31.9276
7.41624 11.9193 14.8982 32.1597
7.51646 11.8586 14.8847 32.3949
7.61668 11.7992 14.8725 32.6316
7.7169 11.7416 14.8618 32.8684
7.81712 11.6861 14.8528 33.1033
7.91734 11.6332 14.8453 33.3346
8.01756 11.5832 14.8395 33.5605
8.11778 11.5364 14.8353 33.7794
8.218 11.4933 14.8328 33.9897
8.31822 11.4542 14.8319 34.1899
8.41844 11.4196 14.8326 34.3788
8.51866 11.3898 14.8349 34.5554
8.61887 11.3651 14.8388 34.7189
8.71909 11.346 14.8444 34.8689
8.81931 11.3328 14.8515 35.0051
8.91953 11.3259 14.8603 35.1275
9.01975 11.3255 14.8708 35.2365
9.11997 11.332 14.883 35.3323
9.22019 11.3455 14.8971 35.4158
9.32041 11.3664 14.913 35.4876
9.42063 11.3948 14.9309 35.5488
9.52085 11.4306 14.9509 35.6003
9.62107 11.4741 14.973 35.6431
9.72129 11.5252 14.9974 35.6782
9.82151 11.5837 15.024 35.7067
9.92173 11.6496 15.0529 35.7293
10.0219 11.7225 15.0842 35.7469
10.1222 11.8021 15.1179 35.7601
10.2224 11.8882 15.1541 35.7693
10.3226 11.9802 15.1926 35.7749
10.4228 12.0776 15.2336 35.777
10.523 12.1799 15.277 35.7756
10.6233 12.2865 15.3227 35.7706
10.7235 12.3967 15.3706 35.7616
10.8237 12.5099 15.4208 35.7484
10.9239 12.6253 15.4731 35.7304
11.0241 12.7423 15.5275 35.7071
11.1244 12.8601 15.5839 35.6781
11.2246 12.978 15.6423 35.6429
11.3248 13.0954 15.7025 35.6011
11.425 13.2116 15.7646 35.5523
11.5252 13.326 15.8285 35.4963
11.6255 13.4381 15.8942 35.4332
11.7257 13.5474 15.9616 35.363
11.8259 13.6534 16.0307 35.286
11.9261 13.7557 16.1017 35.2026
12.0263 13.8541 16.1743 35.1136
12.1266 13.9483 16.2488 35.0197
12.2268 14.0382 16.325 34.922
12.327 14.1236 16.4031 34.8215
12.4272 14.2045 16.483 34.7194
12.5274 14.281 16.5647 34.6171
12.6277 14.3531 16.6483 34.5161
12.7279 14.421 16.7337 34.4176
12.8281 14.4849 16.8209 34.3232
12.9283 14.545 16.9098 34.2341
13.0285 14.6016 17.0003 34.1518
13.1288 14.6549 17.0924 34.0773
13.229 14.7054 17.186 34.0118
13.3292 14.7533 17.2809 33.9562
13.4294 14.7989 17.3769 33.9114
13.5296 14.8426 17.474 33.878
13.6298 14.8848 17.5719 33.8564
13.7301 14.9256 17.6705 33.847
13.8303 14.9656 17.7695 33.8499
13.9305 15.0049 17.8689 33.8651
14.0307 15.0439 17.9684 33.8925
14.1309 15.0827 18.068 33.9318
14.2312 15.1218 18.1674 33.9828
14.3314 15.1612 18.2667 34.0449
14.4316 15.2012 18.3657 34.1179
14.5318 15.2421 18.4644 34.201
14.632 15.2839 18.5628 34.294
14.7323 15.3269 18.6609 34.3962
14.8325 15.3711 18.7589 34.5071
14.9327 15.4168 18.8567 34.6264
15.0329 15.4641 18.9546 34.7535
15.1331 15.513 19.0527 34.888
15.2334 15.5637 19.1513 35.0296
15.3336 15.6163 19.2503 35.1779
15.4338 15.6709 19.3502 35.3325
15.534 15.7274 19.451 35.4929
15.6342 15.786 19.553 35.6589
15.7345 15.8468 19.6563 35.8299
15.8347 15.9097 19.7611 36.0054
15.9349 15.9747 19.8674 36.1848
16.0351 16.0419 19.9753 36.3674
16.1353 16.1112 20.0848 36.5524
16.2356 16.1825 20.1958 36.7388
16.3358 16.2558 20.3083 36.9257
16.436 16.3309 20.422 37.1118
16.5362 16.4077 20.5367 37.2959
16.6364 16.4859 20.6521 37.4766
16.7367 16.5655 20.7677 37.6524
16.8369 16.6462 20.8831 37.8218
16.9371 16.7276 20.9979 37.9832
17.0373 16.8095 21.1114 38.1349
17.1375 16.8915 21.2229 38.2756
17.2377 16.9734 21.332 38.4036
17.338 17.0546 21.4378 38.5176
17.4382 17.1349 21.5397 38.6163
17.5384 17.2137 21.637 38.6986
17.6386 17.2907 21.729 38.7637
17.7388 17.3654 21.8149 38.8109
17.8391 17.4373 21.894 38.8398
17.9393 17.506 21.9659 38.8504
18.0395 17.5711 22.0297 38.8428
18.1397 17.6321 22.085 38.8176
18.2399 17.6885 22.1312 38.7756
18.3402 17.74 22.1679 38.7178
18.4404 17.7862 22.1947 38.6457
18.5406 17.8267 22.2112 38.5609
18.6408 17.8611 22.2172 38.4653
18.741 17.8891 22.2125 38.3609
18.8413 17.9105 22.1969 38.2501
18.9415 17.925 22.1705 38.1351
19.0417 17.9324 22.1331 38.0183
19.1419 17.9325 22.0849 37.9023
19.2421 17.9253 22.0259 37.7895
19.3424 17.9106 21.9565 37.6822
19.4426 17.8884 21.8767 37.5827
19.5428 17.8587 21.7869 37.4931
19.643 17.8215 21.6875 37.4155
19.7432 17.777 21.5788 37.3515
19.8435 17.7253 21.4613 37.3028
19.9437 17.6665 21.3354 37.2705
20.0439 17.601 21.2017 37.2557
20.1441 17.5288 21.0607 37.2592
20.2443 17.4504 20.9131 37.2816
20.3446 17.3661 20.7595 37.323
20.4448 17.2762 20.6005 37.3836
20.545 17.1811 20.437 37.4631
20.6452 17.0813 20.2696 37.5612
20.7454 16.9772 20.0991 37.6773
20.8457 16.8693 19.9265 37.8107
20.9459 16.758 19.7525 37.9605
21.0461 16.6438 19.578 38.1258
21.1463 16.5273 19.404 38.3054
21.2465 16.4088 19.2313 38.4983
21.3467 16.289 19.061 38.7032
21.447 16.1683 18.8939 38.919
21.5472 16.0471 18.7309 39.1443
21.6474 15.9259 18.5731 39.378
21.7476 15.8051 18.4213 39.6188
21.8478 15.6851 18.2764 39.8653
21.9481 15.5663 18.1393 40.1163
22.0483 15.449 18.0107 40.3705
22.1485 15.3335 17.8914 40.6265
22.2487 15.22 17.7821 40.8832
22.3489 15.1087 17.6834 41.1391
22.4492 14.9999 17.5958 41.393
22.5494 14.8937 17.5197 41.6434
22.6496 14.7901 17.4556 41.8891
22.7498 14.6893 17.4037 42.1286
22.85 14.5912 17.3642 42.3606
22.9503 14.4959 17.3372 42.5838
23.0505 14.4035 17.3226 42.7967
23.1507 14.3137 17.3204 42.9982
23.2509 14.2268 17.3304 43.1869
23.3511 14.1425 17.3524 43.3618
23.4514 14.0609 17.3859 43.5217
23.5516 13.9819 17.4306 43.6657
23.6518 13.9056 17.486 43.7931
23.752 13.832 17.5516 43.9031
23.8522 13.7611 17.6268 43.9952
23.9525 13.6929 17.7112 44.0693
24.0527 13.6276 17.8039 44.1253
24.1529 13.5653 17.9045 44.1632
24.2531 13.5061 18.0122 44.1835
24.3533 13.4502 18.1265 44.1868
24.4536 13.3979 18.2466 44.1738
24.5538 13.3494 18.3719 44.1456
24.654 13.305 18.5019 44.1034
24.7542 13.2649 18.636 44.0484
24.8544 13.2294 18.7734 43.9822
24.9546 13.1988 18.9137 43.9063
25.0549 13.1735 19.0563 43.8224
25.1551 13.1537 19.2007 43.7321
25.2553 13.1396 19.3464 43.6372
25.3555 13.1316 19.4928 43.5391
25.4557 13.1297 19.6394 43.4396
25.556 13.1341 19.7857 43.3399
25.6562 13.1451 19.9313 43.2415
25.7564 13.1625 20.0756 43.1453
25.8566 13.1863 20.2181 43.0523
25.9568 13.2166 20.3583 42.9633
26.0571 13.2531 20.4958 42.8787
26.1573 13.2956 20.6299 42.7987
26.2575 13.3438 20.7601 42.7235
26.3577 13.3974 20.8859 42.6529
26.4579 13.456 21.0068 42.5865
26.5582 13.519 21.1222 42.5239
26.6584 13.586 21.2316 42.4643
26.7586 13.6564 21.3344 42.4069
26.8588 13.7296 21.4301 42.351
26.959 13.8049 21.5181 42.2956
27.0593 13.8816 21.5981 42.2397
27.1595 13.9591 21.6694 42.1826
27.2597 14.0368 21.7317 42.1232
27.3599 14.1139 21.7845 42.0609
27.4601 14.1898 21.8275 41.995
27.5604 14.264 21.8604 41.925
27.6606 14.3357 21.8828 41.8506
27.7608 14.4045 21.8946 41.7714
27.861 14.4699 21.8955 41.6875
27.9612 14.5314 21.8854 41.599
28.0615 14.5887 21.8642 41.5062
28.1617 14.6414 21.8319 41.4096
28.2619 14.6893 21.7885 41.3096
28.3621 14.7321 21.734 41.2071
28.4623 14.7698 21.6686 41.1027
28.5626 14.8022 21.5924 40.9973
28.6628 14.8292 21.5056 40.8919
28.763 14.851 21.4084 40.7872
28.8632 14.8675 21.301 40.6843
28.9634 14.8789 21.1837 40.5838
29.0636 14.8853 21.0568 40.4867
29.1639 14.8868 20.9206 40.3935
29.2641 14.8837 20.7754 40.3048
29.3643 14.8761 20.6217 40.2212
29.4645 14.8642 20.4597 40.1429
29.5647 14.8482 20.2897 40.0701
29.665 14.8284 20.1123 40.003
29.7652 14.8049 19.9277 39.9414
29.8654 14.778 19.7364 39.8852
29.9656 14.7478 19.5387 39.834
30.0658 14.7145 19.3351 39.7877
30.1661 14.6783 19.1259 39.7455
30.2663 14.6394 18.9117 39.7072
30.3665 14.5978 18.6927 39.672
30.4667 14.5536 18.4696 39.6394
30.5669 14.5071 18.2426 39.6089
30.6672 14.4583 18.0123 39.5797
30.7674 14.4072 17.7792 39.5513
30.8676 14.354 17.5435 39.5232
30.9678 14.2987 17.306 39.4949
31.068 14.2415 17.0669 39.4658
31.1683 14.1823 16.8267 39.4354
31.2685 14.1212 16.586 39.4035
31.3687 14.0584 16.3451 39.3695
31.4689 13.9938 16.1044 39.3332
31.5691 13.9276 15.8645 39.2942
31.6694 13.8599 15.6256 39.2522
31.7696 13.7907 15.3883 39.2068
31.8698 13.7201 15.1527 39.1578
31.97 13.6482 14.9193 39.1049
32.0702 13.5752 14.6884 39.0476
32.1705 13.5012 14.4603 38.9857
32.2707 13.4262 14.2352 38.9187
32.3709 13.3504 14.0134 38.8462
32.4711 13.2738 13.795 38.7679
32.5713 13.1968 13.5802 38.6834
32.6715 13.1192 13.3693 38.5921
32.7718 13.0414 13.1624 38.4938
32.872 12.9633 12.9595 38.3881
32.9722 12.8851 12.7609 38.2747
33.0724 12.8068 12.5666 38.1533
33.1726 12.7287 12.3766 38.0237
33.2729 12.6508 12.1912 37.886
33.3731 12.5731 12.0105 37.74
33.4733 12.4958 11.8344 37.5861
33.5735 12.4189 11.6631 37.4246
33.6737 12.3424 11.4967 37.2558
33.774 12.2664 11.3353 37.0804
33.8742 12.1909 11.1791 36.8991
33.9744 12.116 11.0281 36.7129
34.0746 12.0417 10.8824 36.5227
34.1748 11.9679 10.7422 36.3298
34.2751 11.8946 10.6075 36.1354
34.3753 11.8219 10.4786 35.9408
34.4755 11.7496 10.3554 35.7475
34.5757 11.6778 10.2381 35.5569
34.6759 11.6063 10.1267 35.3703
34.7762 11.5352 10.0212 35.1893
34.8764 11.4643 9.92179 35.0153
34.9766 11.3935 9.82835 34.8493
35.0768 11.3229 9.74086 34.6928
35.177 11.2522 9.65927 34.5466
35.2773 11.1814 9.58349 34.4117
35.3775 11.1104 9.51341 34.2887
35.4777 11.039 9.44886 34.1783
35.5779 10.9673 9.38968 34.0806
35.6781 10.8951 9.33566 33.996
35.7784 10.8223 9.28659 33.9243
35.8786 10.7488 9.24223 33.8652
35.9788 10.6747 9.20233 33.8184
36.079 10.5998 9.16664 33.7833
36.1792 10.5242 9.13491 33.7592
36.2795 10.4478 9.10689 33.7452
36.3797 10.3707 9.08234 33.7404
36.4799 10.2929 9.06105 33.7438
36.5801 10.2145 9.04282 33.7545
36.6803 10.1357 9.02749 33.7712
36.7805 10.0565 9.01491 33.7931
36.8808 9.97716 9.00499 33.819
36.981 9.89793 8.99764 33.848
37.0812 9.81905 8.99284 33.8792
37.1814 9.74082 8.9906 33.9118
37.2816 9.66358 8.99093 33.945
37.3819 9.58769 8.99393 33.9782
37.4821 9.51356 8.99967 34.0109
37.5823 9.44162 9.00829 34.0426
37.6825 9.37234 9.01993 34.073
37.7827 9.30621 9.03475 34.1017
37.883 9.24374 9.05292 34.1287
37.9832 9.18546 9.0746 34.1537
38.0834 9.1319 9.09996 34.1767
38.1836 9.08361 9.12918 34.1977
38.2838 9.04115 9.16239 34.2166
38.3841 9.00504 9.19973 34.2335
38.4843 8.97583 9.2413 34.2484
38.5845 8.95403 9.2872 34.2613
38.6847 8.94013 9.33747 34.2722
38.7849 8.93461 9.39215 34.2812
38.8852 8.9379 9.45123 34.2882
38.9854 8.95039 9.51469 34.2933
39.0856 8.97243 9.58247 34.2964
39.1858 9.00433 9.65448 34.2976
39.286 9.04633 9.73061 34.2968
39.3863 9.09862 9.81075 34.2942
39.4865 9.16134 9.89475 34.2896
39.5867 9.23453 9.98245 34.2833
39.6869 9.31819 10.0737 34.2754
39.7871 9.41226 10.1683 34.266
39.8874 9.51657 10.2661 34.2554
39.9876 9.63093 10.3669 34.2439
40.0878 9.75502 10.4705 34.2319
40.188 9.88849 10.5768 34.2196
40.2882 10.0309 10.6857 34.2077
40.3884 10.1818 10.7969 34.1965
40.4887 10.3405 10.9103 34.1867
40.5889 10.5065 11.0257 34.1787
40.6891 10.679 11.1431 34.1731
40.7893 10.8574 11.2622 34.1704
40.8895 11.0408 11.3829 34.1711
40.9898 11.2284 11.505 34.1757
41.09 11.4194 11.6284 34.1845
41.1902 11.6128 11.7528 34.1979
41.2904 11.8078 11.8781 34.2159
41.3906 12.0035 12.0039 34.2388
41.4909 12.1989 12.1302 34.2666
41.5911 12.3932 12.2565 34.299
41.6913 12.5854 12.3826 34.3359
41.7915 12.7748 12.5081 34.3769
41.8917 12.9604 12.6327 34.4215
41.992 13.1416 12.756 34.4692
42.0922 13.3175 12.8776 34.5193
42.1924 13.4876 12.997 34.5712
42.2926 13.6512 13.1139 34.6242
42.3928 13.8079 13.2277 34.6774
42.4931 13.9571 13.3381 34.7303
42.5933 14.0985 13.4445 34.782
42.6935 14.2318 13.5465 34.832
42.7937 14.3569 13.6438 34.8797
42.8939 14.4735 13.7358 34.9247
42.9942 14.5817 13.8223 34.9666
43.0944 14.6815 13.9028 35.0053
43.1946 14.7731 13.9771 35.0406
43.2948 14.8565 14.0448 35.0728
43.395 14.9321 14.1059 35.1019
43.4953 15.0001 14.16 35.1285
43.5955 15.0609 14.2071 35.1529
43.6957 15.1149 14.2471 35.1757
43.7959 15.1625 14.2799 35.1977
43.8961 15.2042 14.3057 35.2196
43.9964 15.2403 14.3244 35.2421
44.0966 15.2714 14.3362 35.2662
44.1968 15.2979 14.3412 35.2925
44.297 15.3201 14.3396 35.3218
44.3972 15.3386 14.3317 35.3547
44.4974 15.3536 14.3176 35.392
44.5977 15.3656 14.2978 35.4339
44.6979 15.3747 14.2724 35.4807
44.7981 15.3813 14.2418 35.5328
44.8983 15.3856 14.2063 35.59
44.9985 15.3878 14.1662 35.6522
45.0988 15.3879 14.1218 35.719
45.199 15.386 14.0736 35.79
45.2992 15.3823 14.0218 35.8646
45.3994 15.3768 13.9667 35.942
45.4996 15.3694 13.9088 36.0214
45.5999 15.3601 13.8482 36.1019
45.7001 15.3489 13.7854 36.1824
45.8003 15.3358 13.7206 36.2621
45.9005 15.3207 13.6541 36.34
46.0007 15.3037 13.5863 36.415
46.101 15.2846 13.5175 36.4865
46.2012 15.2636 13.4479 36.5535
46.3014 15.2406 13.3778 36.6156
46.4016 15.2159 13.3076 36.672
46.5018 15.1894 13.2374 36.7226
46.6021 15.1614 13.1676 36.767
46.7023 15.132 13.0984 36.8052
46.8025 15.1015 13.0301 36.8374
46.9027 15.0702 12.9629 36.8637
47.0029 15.0384 12.8971 36.8847
47.1032 15.0064 12.8328 36.9007
47.2034 14.9746 12.7702 36.9123
47.3036 14.9433 12.7095 36.9203
47.4038 14.9131 12.6509 36.9254
47.504 14.8842 12.5945 36.9283
47.6043 14.8572 12.5403 36.9297
47.7045 14.8323 12.4885 36.9303
47.8047 14.81 12.4392 36.9308
47.9049 14.7906 12.3923 36.9318
48.0051 14.7743 12.3479 36.9336
48.1053 14.7615 12.306 36.9366
48.2056 14.7524 12.2665 36.941
48.3058 14.747 12.2295 36.9469
48.406 14.7455 12.1948 36.9543
48.5062 14.7479 12.1624 36.963
48.6064 14.7542 12.1323 36.9727
48.7067 14.7642 12.1044 36.983
48.8069 14.7777 12.0788 36.9934
48.9071 14.7945 12.0552 37.0034
49.0073 14.8143 12.0339 37.0124
49.1075 14.8367 12.0147 37.0197
49.2078 14.8613 11.9978 37.0247
49.308 14.8875 11.9831 37.0269
49.4082 14.9149 11.9708 37.0256
49.5084 14.9429 11.961 37.0203
49.6086 14.971 11.9538 37.0106
49.7089 14.9984 11.9493 36.9961
49.8091 15.0247 11.9478 36.9767
49.9093 15.0492 11.9495 36.9521
50.0095 15.0713 11.9545 36.9224
50.1097 15.0904 11.963 36.8875
50.21 15.1059 11.9753 36.8477
50.3102 15.1174 11.9915 36.8031
50.4104 15.1242 12.0118 36.7542
50.5106 15.1261 12.0364 36.7011
50.6108 15.1225 12.0652 36.6444
50.7111 15.1131 12.0985 36.5844
50.8113 15.0977 12.1361 36.5216
50.9115 15.0759 12.1782 36.4565
51.0117 15.0476 12.2244 36.3893
51.1119 15.0127 12.2748 36.3204
51.2122 14.971 12.3291 36.2501
51.3124 14.9228 12.3869 36.1786
51.4126 14.8678 12.448 36.1061
51.5128 14.8064 12.5118 36.0327
51.613 14.7386 12.5781 35.9584
51.7132 14.6646 12.6461 35.8831
51.8135 14.5847 12.7154 35.8068
51.9137 14.4992 12.7853 35.7293
52.0139 14.4083 12.8552 35.6504
52.1141 14.3126 12.9244 35.5701
52.2143 14.2123 12.9923 35.4881
52.3146 14.1077 13.0582 35.4042
52.4148 13.9995 13.1214 35.3184
52.515 13.8878 13.1812 35.2305
52.6152 13.7732 13.237 35.1406
52.7154 13.6561 13.2882 35.0487
52.8157 13.5369 13.3343 34.9549
52.9159 13.4159 13.3748 34.8595
53.0161 13.2936 13.4091 34.7628
53.1163 13.1703 13.4368 34.6651
53.2165 13.0463 13.4577 34.5669
53.3168 12.9219 13.4714 34.4687
53.417 12.7975 13.4778 34.3711
53.5172 12.6732 13.4765 34.2747
53.6174 12.5493 13.4676 34.1803
53.7176 12.426 13.451 34.0884
53.8179 12.3034 13.4267 33.9998
53.9181 12.1816 13.3947 33.9151
54.0183 12.0607 13.3552 33.8348
54.1185 11.9408 13.3083 33.7597
54.2187 11.8219 13.2542 33.6902
54.319 11.704 13.193 33.6268
54.4192 11.5871 13.1251 33.5698
54.5194 11.4712 13.0507 33.5195
54.6196 11.3562 12.9701 33.4762
54.7198 11.242 12.8837 33.44
54.8201 11.1287 12.7916 33.4109
54.9203 11.0161 12.6944 33.389
55.0205 10.9042 12.5923 33.3743
55.1207 10.7928 12.4857 33.3665
55.2209 10.6821 12.3749 33.3657
55.3212 10.5719 12.2604 33.3716
55.4214 10.4621 12.1424 33.3841
55.5216 10.3529 12.0215 33.403
55.6218 10.2442 11.8979 33.4283
55.722 10.1361 11.7721 33.4598
55.8222 10.0285 11.6445 33.4975
55.9225 9.9216 11.5154 33.5413
56.0227 9.81545 11.3852 33.5912
56.1229 9.71015 11.2544 33.6474
56.2231 9.60581 11.1233 33.7098
56.3233 9.50257 10.9923 33.7786
56.4236 9.40055 10.8618 33.854
56.5238 9.29992 10.7321 33.936
56.624 9.20079 10.6036 34.0249
56.7242 9.10333 10.4766 34.1207
56.8244 9.00766 10.3514 34.2235
56.9247 8.91392 10.2283 34.3334
57.0249 8.82221 10.1075 34.4505
57.1251 8.73265 9.9894 34.5745
57.2253 8.64532 9.87409 34.7055
57.3255 8.56029 9.76179 34.8431
57.4258 8.47759 9.65266 34.9872
57.526 8.39725 9.54684 35.1373
57.6262 8.31928 9.44443 35.293
57.7264 8.24366 9.34552 35.4538
57.8266 8.17033 9.25016 35.6191
57.9269 8.09925 9.1584 35.7883
58.0271 8.03033 9.07027 35.9608
58.1273 7.96348 8.98578 36.136
58.2275 7.89859 8.90492 36.3132
58.3277 7.83556 8.8277 36.4918
58.428 7.77426 8.7541 36.6712
58.5282 7.71458 8.68412 36.8511
58.6284 7.65638 8.61775 37.0309
58.7286 7.59956 8.555 37.2104
58.8288 7.54401 8.49585 37.3893
58.9291 7.48964 8.44034 37.5675
59.0293 7.43635 8.38847 37.7452
59.1295 7.38408 8.34028 37.9224
59.2297 7.33278 8.2958 38.0993
59.3299 7.28242 8.25507 38.2764
59.4301 7.23298 8.21812 38.4541
59.5304 7.18446 8.18501 38.6328
59.6306 7.13689 8.15577 38.8131
59.7308 7.09031 8.13041 38.9956
59.831 7.04477 8.10897 39.181
59.9312 7.00033 8.09144 39.3697
60.0315 6.95708 8.0778 39.5623
60.1317 6.91511 8.06801 39.7592
60.2319 6.8745 8.06199 39.9609
60.3321 6.83537 8.05966 40.1675
60.4323 6.79779 8.06087 40.3792
60.5326 6.76189 8.06548 40.5959
60.6328 6.72775 8.07329 40.8176
60.733 6.69545 8.08407 41.0438
60.8332 6.66508 8.09758 41.2741
60.9334 6.63672 8.11353 41.5079
61.0337 6.61041 8.13162 41.7444
61.1339 6.58622 8.15154 41.9827
61.2341 6.56418 8.17295 42.2219
61.3343 6.5443 8.19551 42.4608
61.4345 6.5266 8.21887 42.6984
61.5348 6.51109 8.2427 42.9334
61.635 6.49775 8.26668 43.1646
61.7352 6.48654 8.29048 43.391
61.8354 6.47745 8.31382 43.6112
61.9356 6.47043 8.33643 43.8242
62.0359 6.46542 8.35808 44.029
62.1361 6.46237 8.37858 44.2247
62.2363 6.46121 8.39776 44.4104
62.3365 6.46187 8.41551 44.5853
62.4367 6.46427 8.43175 44.7489
62.537 6.46834 8.44644 44.9007
62.6372 6.47399 8.45958 45.0402
62.7374 6.48113 8.4712 45.1672
62.8376 6.48968 8.48139 45.2814
62.9378 6.49952 8.49024 45.3827
63.0381 6.51057 8.49788 45.471
63.1383 6.52272 8.50446 45.5464
63.2385 6.53586 8.51015 45.6088
63.3387 6.54989 8.51514 45.6582
63.4389 6.56468 8.5196 45.6946
63.5391 6.58011 8.52373 45.7182
63.6394 6.59606 8.52772 45.7287
63.7396 6.61241 8.53174 45.7263
63.8398 6.62902 8.53598 45.7108
63.94 6.64576 8.54059 45.6821
64.0402 6.66249 8.54573 45.6402
64.1405 6.67909 8.55152 45.5849
64.2407 6.69543 8.55809 45.5162
64.3409 6.71137 8.56554 45.4338
64.4411 6.72679 8.57396 45.3377
64.5413 6.74159 8.58342 45.228
64.6416 6.75565 8.59399 45.1047
64.7418 6.76887 8.60573 44.968
64.842 6.78117 8.61868 44.8182
64.9422 6.79249 8.63287 44.6557
65.0424 6.80277 8.64835 44.4811
65.1427 6.81196 8.66514 44.2952
65.2429 6.82004 8.68327 44.0989
65.3431 6.82701 8.70277 43.8934
65.4433 6.83288 8.72366 43.6799
65.5435 6.83766 8.74597 43.4599
65.6438 6.84141 8.76971 43.235
65.744 6.84417 8.79489 43.0071
65.8442 6.84602 8.82153 42.778
65.9444 6.84702 8.84962 42.5497
66.0446 6.84725 8.87914 42.3243
66.1449 6.84682 8.91007 42.1039
66.2451 6.8458 8.94236 41.8905
66.3453 6.84429 8.97595 41.6863
66.4455 6.84236 9.01075 41.4933
66.5457 6.84011 9.04666 41.3133
66.646 6.8376 9.08353 41.148
66.7462 6.83489 9.12121 40.999
66.8464 6.83203 9.15952 40.8677
66.9466 6.82905 9.19824 40.7553
67.0468 6.82597 9.23714 40.6625
67.147 6.8228 9.27598 40.5902
67.2473 6.81951 9.31449 40.5386
67.3475 6.81607 9.35239 40.508
67.4477 6.81245 9.3894 40.4981
67.5479 6.80857 9.42522 40.5087
67.6481 6.80438 9.45958 40.5392
67.7484 6.79978 9.4922 40.5886
67.8486 6.79469 9.52284 40.6562
67.9488 6.78902 9.55125 40.7406
68.049 6.78267 9.57725 40.8407
68.1492 6.77554 9.60064 40.9551
68.2495 6.76755 9.62132 41.0823
68.3497 6.75861 9.63918 41.2208
68.4499 6.74865 9.65418 41.3691
68.5501 6.73762 9.66632 41.5257
68.6503 6.72548 9.67565 41.6892
68.7506 6.71218 9.68228 41.8581
68.8508 6.69775 9.68633 42.031
68.951 6.68217 9.68799 42.2068
69.0512 6.66551 9.68748 42.3843
69.1514 6.64781 9.68505 42.5623
69.2517 6.62917 9.68099 42.7399
69.3519 6.60968 9.6756 42.9162
69.4521 6.58948 9.6692 43.0905
69.5523 6.56871 9.66212 43.262
69.6525 6.54756 9.65467 43.4303
69.7528 6.52619 9.64719 43.5947
69.853 6.50483 9.63999 43.7548
69.9532 6.48368 9.63337 43.9103
70.0534 6.46298 9.62758 44.0609
70.1536 6.44297 9.62287 44.2062
70.2539 6.4239 9.61947 44.3461
70.3541 6.40603 9.61754 44.4803
70.4543 6.38961 9.61722 44.6088
70.5545 6.37489 9.61864 44.7315
70.6547 6.36214 9.62185 44.8482
70.755 6.35161 9.62691 44.959
70.8552 6.34355 9.6338 45.0638
70.9554 6.3382 9.64253 45.1627
71.0556 6.33579 9.65303 45.2559
71.1558 6.33653 9.66523 45.3433
71.256 6.34063 9.67906 45.4253
71.3563 6.34829 9.69441 45.5019
71.4565 6.35967 9.71117 45.5736
71.5567 6.37494 9.72924 45.6404
71.6569 6.39422 9.7485 45.7028
71.7571 6.41763 9.76884 45.761
71.8574 6.44526 9.79016 45.8154
71.9576 6.47717 9.81236 45.8663
72.0578 6.51341 9.83535 45.9139
72.158 6.554 9.85907 45.9585
72.2582 6.59891 9.88346 46.0004
72.3585 6.6481 9.90845 46.0395
72.4587 6.70151 9.93403 46.0761
72.5589 6.75903 9.96015 46.1099
72.6591 6.82054 9.98682 46.141
72.7593 6.88587 10.014 46.169
72.8596 6.95485 10.0417 46.1935
72.9598 7.02726 10.07 46.214
73.06 7.10287 10.0988 46.23
73.1602 7.18142 10.1282 46.2406
73.2604 7.26262 10.1582 46.2451
73.3607 7.34619 10.1889 46.2426
73.4609 7.4318 10.2201 46.2321
73.5611 7.51913 10.2521 46.2125
73.6613 7.60786 10.2847 46.183
73.7615 7.69764 10.3181 46.1424
73.8618 7.78814 10.3522 46.0899
73.962 7.87902 10.3872 46.0246
74.0622 7.96995 10.423 45.9458
74.1624 8.06062 10.4597 45.8529
74.2626 8.15072 10.4974 45.7455
74.3629 8.23997 10.5361 45.6233
74.4631 8.3281 10.5759 45.4865
74.5633 8.41487 10.6169 45.3352
74.6635 8.50005 10.6591 45.1699
74.7637 8.58345 10.7027 44.9915
74.8639 8.6649 10.7477 44.8009
74.9642 8.74426 10.7943 44.5995
75.0644 8.82142 10.8424 44.3887
75.1646 8.89628 10.8921 44.1703
75.2648 8.96877 10.9436 43.9462
75.365 9.03886 10.9969 43.7184
75.4653 9.10652 11.0519 43.4892
75.5655 9.17174 11.1087 43.2609
75.6657 9.23454 11.1673 43.0356
75.7659 9.29493 11.2275 42.8159
75.8661 9.35295 11.2892 42.6038
75.9664 9.40863 11.3524 42.4017
76.0666 9.46201 11.4167 42.2114
76.1668 9.51314 11.4821 42.035
76.267 9.56206 11.5481 41.8741
76.3672 9.6088 11.6145 41.7302
76.4675 9.6534 11.6808 41.6043
76.5677 9.69588 11.7468 41.4976
76.6679 9.73626 11.8118 41.4105
76.7681 9.77456 11.8756 41.3435
76.8683 9.81076 11.9374 41.2967
76.9686 9.84488 11.997 41.2698
77.0688 9.8769 12.0536 41.2625
77.169 9.90681 12.1068 41.274
77.2692 9.93459 12.1561 41.3035
77.3694 9.96022 12.2009 41.3498
77.4697 9.98369 12.2409 41.4119
77.5699 10.005 12.2755 41.4883
77.6701 10.0241 12.3043 41.5776
77.7703 10.041 12.327 41.6784
77.8705 10.0558 12.3434 41.789
77.9708 10.0684 12.3531 41.9081
78.071 10.0788 12.356 42.0341
78.1712 10.0872 12.352 42.1657
78.2714 10.0936 12.3411 42.3015
78.3716 10.0981 12.3233 42.4402
78.4719 10.1007 12.2986 42.5808
78.5721 10.1017 12.2674 42.7221
78.6723 10.101 12.2297 42.8633
78.7725 10.0989 12.186 43.0036
78.8727 10.0956 12.1366 43.1422
78.9729 10.0911 12.0818 43.2785
79.0732 10.0857 12.0222 43.4121
79.1734 10.0796 11.9581 43.5426
79.2736 10.0731 11.8903 43.6695
79.3738 10.0662 11.8191 43.7926
79.474 10.0592 11.7451 43.9117
79.5743 10.0524 11.669 44.0266
79.6745 10.0459 11.5913 44.1371
79.7747 10.04 11.5126 44.243
79.8749 10.0349 11.4335 44.3443
79.9751 10.0308 11.3547 44.4408
80.0754 10.0278 11.2765 44.5324
80.1756 10.0263 11.1997 44.6191
80.2758 10.0263 11.1248 44.7006
80.376 10.0281 11.0524 44.777
80.4762 10.0318 10.9829 44.8482
80.5765 10.0375 10.9169 44.914
80.6767 10.0454 10.8548 44.9744
80.7769 10.0555 10.7972 45.0294
80.8771 10.0681 10.7446 45.079
80.9773 10.083 10.6973 45.1232
81.0776 10.1005 10.6558 45.162
81.1778 10.1206 10.6205 45.1954
81.278 10.1432 10.5919 45.2235
81.3782 10.1683 10.5703 45.2464
81.4784 10.196 10.556 45.2641
81.5787 10.2262 10.5494 45.2767
81.6789 10.2588 10.5507 45.2844
81.7791 10.2937 10.5603 45.287
81.8793 10.3309 10.5784 45.2848
81.9795 10.3702 10.6051 45.2776
82.0798 10.4114 10.6407 45.2655
82.18 10.4545 10.6851 45.2483
82.2802 10.4991 10.7386 45.2261
82.3804 10.5452 10.8011 45.1985
82.4806 10.5924 10.8726 45.1656
82.5808 10.6407 10.9529 45.1269
82.6811 10.6897 11.042 45.0823
82.7813 10.7393 11.1397 45.0315
82.8815 10.7892 11.2457 44.9742
82.9817 10.8392 11.3597 44.91
83.0819 10.8891 11.4815 44.8389
83.1822 10.9387 11.6105 44.7605
83.2824 10.9878 11.7464 44.6746
83.3826 11.0363 11.8888 44.5813
83.4828 11.0839 12.0371 44.4803
83.583 11.1308 12.1908 44.3719
83.6833 11.1766 12.3494 44.2563
83.7835 11.2214 12.5123 44.1338
83.8837 11.2652 12.679 44.0048
83.9839 11.3081 12.8489 43.87
84.0841 11.35 13.0214 43.73
84.1844 11.391 13.196 43.5857
84.2846 11.4314 13.3721 43.4382
84.3848 11.4712 13.5491 43.2885
84.485 11.5106 13.7266 43.1376
84.5852 11.5499 13.904 42.9869
84.6855 11.5893 14.0808 42.8376
84.7857 11.6291 14.2566 42.6909
84.8859 11.6694 14.4309 42.5481
84.9861 11.7107 14.6032 42.4103
85.0863 11.7531 14.7733 42.2785
85.1866 11.797 14.9406 42.1537
85.2868 11.8425 15.1048 42.0368
85.387 11.8899 15.2655 41.9283
85.4872 11.9395 15.4225 41.8286
85.5874 11.9913 15.5754 41.7381
85.6877 12.0455 15.7238 41.6566
85.7879 12.1023 15.8675 41.584
85.8881 12.1617 16.0063 41.5197
85.9883 12.2236 16.1398 41.4632
86.0885 12.2881 16.2678 41.4136
86.1887 12.3551 16.39 41.3698
86.289 12.4243 16.5063 41.3305
86.3892 12.4957 16.6164 41.2945
86.4894 12.569 16.7202 41.2604
86.5896 12.6439 16.8174 41.2265
86.6898 12.72 16.9078 41.1915
86.7901 12.7971 16.9915 41.1538
86.8903 12.8746 17.0681 41.1119
86.9905 12.9522 17.1377 41.0646
87.0907 13.0295 17.2001 41.0106
87.1909 13.1058 17.2553 40.9489
87.2912 13.1809 17.3033 40.8786
87.3914 13.2541 17.3439 40.799
87.4916 13.3249 17.3773 40.7096
87.5918 13.393 17.4033 40.6104
87.692 13.4577 17.4221 40.5011
87.7923 13.5187 17.4336 40.3822
87.8925 13.5755 17.4379 40.2539
87.9927 13.6277 17.435 40.117
88.0929 13.6749 17.425 39.9723
88.1931 13.7167 17.4078 39.8207
88.2934 13.7529 17.3835 39.6633
88.3936 13.7832 17.3521 39.5012
88.4938 13.8072 17.3136 39.3358
88.594 13.8249 17.268 39.1681
88.6942 13.8361 17.2154 38.9994
88.7945 13.8406 17.1556 38.8309
88.8947 13.8384 17.0887 38.6636
88.9949 13.8295 17.0146 38.4986
89.0951 13.8139 16.9333 38.3367
89.1953 13.7917 16.8447 38.1786
89.2956 13.7629 16.7488 38.0249
89.3958 13.7277 16.6456 37.8759
89.496 13.6862 16.5351 37.732
89.5962 13.6388 16.4174 37.5933
89.6964 13.5856 16.2923 37.4596
89.7967 13.5269 16.1601 37.3308
89.8969 13.4631 16.0209 37.2066
89.9971 13.3944 15.8748 37.0865
90.0973 13.3212 15.7221 36.97
90.1975 13.2439 15.563 36.8567
90.2977 13.163 15.3978 36.7459
90.398 13.0787 15.227 36.637
90.4982 12.9917 15.0511 36.5294
90.5984 12.9023 14.8704 36.4227
90.6986 12.8109 14.6856 36.3162
90.7988 12.718 14.4972 36.2095
90.8991 12.6242 14.306 36.1023
90.9993 12.5298 14.1127 35.9943
91.0995 12.4353 13.9179 35.8852
91.1997 12.3411 13.7225 35.775
91.2999 12.2478 13.5271 35.6635
91.4002 12.1556 13.3327 35.551
91.5004 12.0651 13.1399 35.4375
91.6006 11.9766 12.9495 35.3231
91.7008 11.8905 12.7622 35.2082
91.801 11.8071 12.5789 35.0931
91.9013 11.7267 12.4001 34.978
92.0015 11.6497 12.2264 34.8634
92.1017 11.5762 12.0585 34.7497
92.2019 11.5066 11.8968 34.6371
92.3021 11.4411 11.7418 34.5262
92.4024 11.3798 11.5938 34.4172
92.5026 11.3229 11.4533 34.3106
92.6028 11.2706 11.3204 34.2067
92.703 11.2229 11.1953 34.1057
92.8032 11.1799 11.0782 34.0081
92.9035 11.1417 10.9691 33.9142
93.0037 11.1084 10.8681 33.8241
93.1039 11.0799 10.775 33.7382
93.2041 11.0564 10.6898 33.6567
93.3043 11.0377 10.6125 33.5799
93.4046 11.0239 10.5428 33.508
93.5048 11.015 10.4805 33.4413
93.605 11.011 10.4255 33.3801
93.7052 11.0118 10.3776 33.3245
93.8054 11.0173 10.3364 33.2747
93.9056 11.0275 10.3019 33.2311
94.0059 11.0425 10.2737 33.1939
94.1061 11.062 10.2516 33.1631
94.2063 11.0861 10.2353 33.1389
94.3065 11.1146 10.2247 33.1215
94.4067 11.1476 10.2195 33.1109
94.507 11.1848 10.2194 33.1072
94.6072 11.2262 10.2242 33.1101
94.7074 11.2717 10.2336 33.1197
94.8076 11.3211 10.2475 33.1358
94.9078 11.3744 10.2655 33.158
95.0081 11.4313 10.2874 33.186
95.1083 11.4916 10.3129 33.2194
95.2085 11.5552 10.3417 33.2577
95.3087 11.6218 10.3736 33.3004
95.4089 11.6913 10.4082 33.3468
95.5092 11.7633 10.4453 33.3963
95.6094 11.8375 10.4845 33.4484
95.7096 11.9137 10.5255 33.5023
95.8098 11.9915 10.568 33.5573
95.91 12.0707 10.6116 33.613
96.0103 12.1507 10.6561 33.6687
96.1105 12.2314 10.7012 33.724
96.2107 12.3122 10.7464 33.7785
96.3109 12.3929 10.7917 33.8319
96.4111 12.4729 10.8366 33.884
96.5114 12.5519 10.8811 33.9349
96.6116 12.6295 10.9248 33.9844
96.7118 12.7053 10.9676 34.0329
96.812 12.7788 11.0094 34.0807
96.9122 12.8497 11.0501 34.1281
97.0125 12.9176 11.0896 34.1758
97.1127 12.9821 11.1279 34.2242
97.2129 13.0428 11.165 34.2741
97.3131 13.0994 11.2009 34.3261
97.4133 13.1515 11.2358 34.3809
97.5136 13.1988 11.2698 34.4393
97.6138 13.2411 11.3029 34.5017
97.714 13.278 11.3354 34.5689
97.8142 13.3092 11.3673 34.6412
97.9144 13.3347 11.3989 34.719
98.0146 13.354 11.4304 34.8024
98.1149 13.3672 11.4619 34.8915
98.2151 13.3739 11.4935 34.9861
98.3153 13.3741 11.5255 35.0859
98.4155 13.3677 11.5579 35.1904
98.5157 13.3547 11.5908 35.2989
98.616 13.3348 11.6244 35.4106
98.7162 13.3082 11.6585 35.5245
98.8164 13.2749 11.6933 35.6394
98.9166 13.2349 11.7287 35.7541
99.0168 13.1882 11.7646 35.8674
99.1171 13.1349 11.801 35.9779
99.2173 13.0752 11.8376 36.0843
99.3175 13.0093 11.8744 36.1852
99.4177 12.9372 11.9112 36.2795
99.5179 12.8593 11.9476 36.3661
99.6182 12.7757 11.9835 36.4439
99.7184 12.6868 12.0187 36.5121
99.8186 12.5927 12.0528 36.57
99.9188 12.4938 12.0857 36.6173
100.019 12.3904 12.1169 36.6537
100.119 12.2829 12.1463 36.6792
100.219 12.1716 12.1736 36.6941
100.32 12.057 12.1984 36.6987
100.42 11.9394 12.2207 36.6939
100.52 11.8192 12.2401 36.6804
100.62 11.6968 12.2563 36.6593
100.721 11.5728 12.2693 36.6318
100.821 11.4474 12.2789 36.5991
100.921 11.3213 12.2848 36.5628
101.021 11.1947 12.287 36.5242
101.121 11.0681 12.2854 36.4849
101.222 10.9421 12.2798 36.4462
101.322 10.817 12.2703 36.4097
101.422 10.6933 12.2568 36.3767
101.522 10.5714 12.2393 36.3483
101.623 10.4518 12.2178 36.3258
101.723 10.3349 12.1925 36.3102
101.823 10.2211 12.1634 36.3022
101.923 10.1108 12.1307 36.3026
102.023 10.0046 12.0944 36.3119
102.124 9.90278 12.0549 36.3304
102.224 9.8058 12.0122 36.3584
102.324 9.71408 11.9667 36.396
102.424 9.62803 11.9186 36.443
102.525 9.54807 11.8683 36.4995
102.625 9.47459 11.8162 36.565
102.725 9.40801 11.7625 36.6393
102.825 9.3487 11.7077 36.7221
102.925 9.29705 11.6522 36.8129
103.026 9.25342 11.5966 36.9115
103.126 9.21817 11.5412 37.0173
103.226 9.19162 11.4865 37.13
103.326 9.17406 11.4331 37.2493
103.426 9.16579 11.3814 37.3749
103.527 9.16702 11.332 37.5065
103.627 9.17796 11.2852 37.644
103.727 9.19877 11.2416 37.7871
103.827 9.22954 11.2017 37.9358
103.928 9.27032 11.1657 38.0899
104.028 9.32109 11.1342 38.2494
104.128 9.38178 11.1073 38.4141
104.228 9.45224 11.0854 38.5839
104.328 9.53225 11.0687 38.7589
104.429 9.6215 11.0574 38.9387
104.529 9.71963 11.0514 39.1233
104.629 9.82618 11.0509 39.3124
104.729 9.94063 11.0558 39.5056
104.83 10.0624 11.066 39.7027
104.93 10.1907 11.0813 39.9032
105.03 10.3249 11.1014 40.1066
105.13 10.4642 11.126 40.3122
105.23 10.6076 11.1548 40.5196
105.331 10.7543 11.1873 40.7279
105.431 10.9032 11.2232 40.9365
105.531 11.0534 11.2618 41.1447
105.631 11.2038 11.3027 41.3516
105.732 11.3534 11.3454 41.5564
105.832 11.5011 11.3893 41.7585
105.932 11.6458 11.4338 41.9571
106.032 11.7866 11.4784 42.1515
106.132 11.9223 11.5226 42.3411
106.233 12.0521 11.5659 42.5252
106.333 12.175 11.6078 42.7033
106.433 12.29 11.6479 42.875
106.533 12.3965 11.6859 43.0399
106.634 12.4937 11.7212 43.1976
106.734 12.5808 11.7538 43.3479
106.834 12.6574 11.7833 43.4905
106.934 12.723 11.8096 43.6253
107.034 12.7772 11.8324 43.752
107.135 12.8196 11.8519 43.8707
107.235 12.8502 11.8678 43.9811
107.335 12.8689 11.8803 44.0833
107.435 12.8755 11.8894 44.1769
107.535 12.8704 11.8952 44.262
107.636 12.8537 11.8979 44.3384
107.736 12.8256 11.8977 44.4058
107.836 12.7867 11.8948 44.4641
107.936 12.7373 11.8895 44.5129
108.037 12.678 11.8821 44.5521
108.137 12.6094 11.8728 44.5812
108.237 12.5323 11.862 44.6001
108.337 12.4472 11.8501 44.6083
108.437 12.3551 11.8374 44.6057
108.538 12.2566 11.8242 44.5918
108.638 12.1527 11.811 44.5666
108.738 12.0442 11.7981 44.5298
108.838 11.9319 11.7859 44.4814
108.939 11.8168 11.7749 44.4214
109.039 11.6997 11.7653 44.35
109.139 11.5815 11.7577 44.2673
109.239 11.4629 11.7523 44.1737
109.339 11.3449 11.7496 44.0698
109.44 11.2283 11.7499 43.9562
109.54 11.1137 11.7535 43.8336
109.64 11.0019 11.7608 43.7029
109.74 10.8936 11.7721 43.5652
109.841 10.7894 11.7876 43.4215
109.941 10.69 11.8077 43.273
110.041 10.5957 11.8324 43.1209
110.141 10.5073 11.8621 42.9666
110.241 10.425 11.8968 42.8113
110.342 10.3493 11.9366 42.6563
110.442 10.2805 11.9817 42.5029
110.542 10.2189 12.0319 42.3522
110.642 10.1647 12.0872 42.2056
110.743 10.1183 12.1475 42.0639
110.843 10.0796 12.2128 41.9281
110.943 10.049 12.2827 41.7991
111.043 10.0263 12.3571 41.6776
111.143 10.0118 12.4357 41.5641
111.244 10.0054 12.5181 41.459
111.344 10.0072 12.604 41.3627
111.444 10.0171 12.693 41.2753
111.544 10.0352 12.7847 41.197
111.644 10.0613 12.8787 41.1276
111.745 10.0955 12.9746 41.0672
111.845 10.1377 13.072 41.0154
111.945 10.1877 13.1704 40.972
112.045 10.2457 13.2694 40.9369
112.146 10.3114 13.3687 40.9096
112.246 10.3849 13.4679 40.8899
112.346 10.4661 13.5668 40.8775
112.446 10.5549 13.665 40.872
112.546 10.6513 13.7623 40.8734
112.647 10.7551 13.8585 40.8812
112.747 10.8664 13.9535 40.8954
112.847 10.9851 14.0472 40.9157
112.947 11.1112 14.1395 40.942
113.048 11.2444 14.2305 40.9742
113.148 11.3849 14.3202 41.012
113.248 11.5325 14.4087 41.0554
113.348 11.687 14.496 41.1041
113.448 11.8485 14.5824 41.1579
113.549 12.0167 14.668 41.2166
113.649 12.1915 14.753 41.2798
113.749 12.3728 14.8375 41.347
113.849 12.5603 14.9218 41.4178
113.95 12.7539 15.0061 41.4917
114.05 12.9533 15.0905 41.5678
114.15 13.1583 15.1753 41.6456
114.25 13.3686 15.2606 41.7241
114.35 13.5838 15.3466 41.8026
114.451 13.8038 15.4333 41.88
114.551 14.0281 15.521 41.9555
114.651 14.2564 15.6098 42.0282
114.751 14.4883 15.6996 42.097
114.852 14.7235 15.7906 42.1612
114.952 14.9616 15.8829 42.22
115.052 15.2021 15.9764 42.2728
115.152 15.4447 16.0713 42.3189
115.252 15.6889 16.1676 42.358
115.353 15.9345 16.2652 42.3899
115.453 16.1809 16.3644 42.4147
115.553 16.4278 16.465 42.4324
115.653 16.6749 16.5674 42.4435
115.753 16.9217 16.6714 42.4486
115.854 17.168 16.7774 42.4484
115.954 17.4134 16.8854 42.4441
116.054 17.6576 16.9957 42.4367
116.154 17.9003 17.1084 42.4275
116.255 18.1413 17.2239 42.4181
116.355 18.3804 17.3424 42.4097
116.455 18.6174 17.4644 42.4041
116.555 18.852 17.59 42.4028
116.655 19.0843 17.7197 42.4071
116.756 19.3139 17.854 42.4187
116.856 19.541 17.9932 42.4387
116.956 19.7655 18.1377 42.4684
117.056 19.9873 18.2881 42.5087
117.157 20.2065 18.4447 42.5604
117.257 20.4233 18.608 42.6238
117.357 20.6376 18.7784 42.6994
117.457 20.8496 18.9564 42.7871
117.557 21.0596 19.1422 42.8865
117.658 21.2676 19.3363 42.9972
117.758 21.4741 19.539 43.1182
117.858 21.6793 19.7505 43.2486
117.958 21.8834 19.9711 43.387
118.059 22.0869 20.201 43.5319
118.159 22.29 20.4402 43.6818
118.259 22.4931 20.6888 43.8348
118.359 22.6967 20.9468 43.9892
118.459 22.901 21.2141 44.1431
118.56 23.1065 21.4906 44.2946
118.66 23.3136 21.776 44.4419
118.76 23.5226 22.0699 44.5833
118.86 23.7339 22.372 44.7172
118.961 23.9477 22.6817 44.8422
119.061 24.1642 22.9985 44.9568
119.161 24.3838 23.3217 45.0602
119.261 24.6064 23.6504 45.1513
119.361 24.8323 23.984 45.2297
119.462 25.0613 24.3214 45.2947
119.562 25.2933 24.6615 45.3464
119.662 25.5282 25.0033 45.3847
119.762 25.7657 25.3456 45.4099
119.862 26.0053 25.6872 45.4225
119.963 26.2466 26.0266 45.4229
120.063 26.4888 26.3625 45.4121
120.163 26.7314 26.6935 45.3909
120.263 26.9734 27.0181 45.3602
120.364 27.2138 27.3347 45.3212
120.464 27.4518 27.6419 45.2748
120.564 27.686 27.938 45.2223
120.664 27.9153 28.2217 45.1647
120.764 28.1384 28.4913 45.1031
120.865 28.354 28.7454 45.0384
120.965 28.5606 28.9825 44.9717
121.065 28.7568 29.2013 44.9039
121.165 28.9412 29.4005 44.8356
121.266 29.1123 29.5789 44.7676
121.366 29.2686 29.7353 44.7006
121.466 29.4089 29.8689 44.6349
121.566 29.5317 29.9786 44.571
121.666 29.6357 30.0638 44.5092
121.767 29.7199 30.1239 44.4496
121.867 29.783 30.1585 44.3925
121.967 29.8241 30.1671 44.3379
122.067 29.8425 30.1496 44.2856
122.168 29.8373 30.1061 44.2357
122.268 29.808 30.0367 44.188
122.368 29.7542 29.9416 44.1422
122.468 29.6757 29.8213 44.0982
122.568 29.5725 29.6764 44.0556
122.669 29.4446 29.5074 44.0142
122.769 29.2922 29.3153 43.9735
122.869 29.1159 29.1009 43.9332
122.969 28.9162 28.8653 43.893
123.07 28.6939 28.6096 43.8524
123.17 28.4498 28.3349 43.811
123.27 28.185 28.0425 43.7684
123.37 27.9006 27.7337 43.7242
123.47 27.5979 27.4099 43.678
123.571 27.2782 27.0724 43.6296
123.671 26.9431 26.7228 43.5785
123.771 26.594 26.3625 43.5245
123.871 26.2325 25.9928 43.4674
123.971 25.8602 25.6154 43.4071
124.072 25.4788 25.2317 43.3435
124.172 25.0898 24.8433 43.2767
124.272 24.6951 24.4514 43.2068
124.372 24.2961 24.0578 43.1341
124.473 23.8946 23.6638 43.0589
124.573 23.4921 23.2708 42.9818
124.673 23.0901 22.8804 42.9034
124.773 22.6901 22.4939 42.8244
124.873 22.2936 22.1126 42.7457
124.974 21.9017 21.7381 42.6682
125.074 21.516 21.3715 42.5932
125.174 21.1374 21.0141 42.5215
125.274 20.767 20.6672 42.4546
125.375 20.406 20.332 42.3936
125.475 20.0551 20.0095 42.3397
125.575 19.7152 19.7009 42.2941
125.675 19.3871 19.407 42.2581
125.775 19.0713 19.1288 42.2327
125.876 18.7683 18.8671 42.2189
125.976 18.4788 18.6224 42.2175
126.076 18.2029 18.3955 42.2291
126.176 17.941 18.1866 42.2544
126.277 17.6933 17.9962 42.2935
126.377 17.4598 17.8245 42.3464
126.477 17.2407 17.6713 42.4132
126.577 17.036 17.5367 42.4932
126.677 16.8454 17.4203 42.586
126.778 16.6689 17.3219 42.6906
126.878 16.5062 17.2407 42.8061
126.978 16.3571 17.1761 42.9312
127.078 16.2211 17.1272 43.0645
127.179 16.098 17.0932 43.2046
127.279 15.9873 17.0728 43.3499
127.379 15.8885 17.0648 43.4986
127.479 15.801 17.068 43.6494
127.579 15.7243 17.081 43.8004
127.68 15.6579 17.1022 43.9503
127.78 15.601 17.1302 44.0976
127.88 15.553 17.1633 44.2412
127.98 15.5132 17.2 44.3799
128.08 15.4808 17.2387 44.5129
128.181 15.4551 17.2778 44.6397
128.281 15.4354 17.3158 44.7598
128.381 15.4207 17.351 44.8733
128.481 15.4104 17.3821 44.9802
128.582 15.4035 17.4077 45.0811
128.682 15.3993 17.4265 45.1765
128.782 15.3969 17.4373 45.2674
128.882 15.3953 17.439 45.3549
128.982 15.3939 17.4306 45.4402
129.083 15.3918 17.4113 45.5246
129.183 15.388 17.3803 45.6096
129.283 15.3819 17.3371 45.6967
129.383 15.3727 17.2811 45.7874
129.484 15.3595 17.212 45.8832
129.584 15.3417 17.1296 45.9853
129.684 15.3185 17.0338 46.0951
129.784 15.2894 16.9247 46.2136
129.884 15.2538 16.8023 46.3417
129.985 15.2112 16.6671 46.4802
130.085 15.161 16.5192 46.6294
130.185 15.103 16.3593 46.7896
130.285 15.0367 16.1879 46.9608
130.386 14.9621 16.0057 47.1428
130.486 14.8788 15.8133 47.335
130.586 14.787 15.6116 47.5369
130.686 14.6865 15.4014 47.7474
130.786 14.5775 15.1838 47.9656
130.887 14.4603 14.9595 48.1903
130.987 14.335 14.7298 48.4202
131.087 14.2021 14.4955 48.6539
131.187 14.062 14.2578 48.8901
131.288 13.9153 14.0177 49.1273
131.388 13.7626 13.7764 49.3643
131.488 13.6044 13.5348 49.5996
131.588 13.4417 13.2941 49.8322
131.688 13.275 13.0554 50.0609
131.789 13.1053 12.8195 50.2848
131.889 12.9334 12.5876 50.503
131.989 12.7601 12.3605 50.7151
132.089 12.5864 12.1391 50.9205
132.189 12.4131 11.9243 51.1189
132.29 12.2411 11.7168 51.3103
132.39 12.0712 11.5174 51.4946
132.49 11.9043 11.3265 51.6723
132.59 11.7412 11.1449 51.8435
132.691 11.5827 10.9728 52.0089
132.791 11.4293 10.8106 52.169
132.891 11.2818 10.6587 52.3245
132.991 11.1408 10.5171 52.4764
133.091 11.0067 10.386 52.6253
133.192 10.88 10.2654 52.7724
133.292 10.761 10.1551 52.9184
133.392 10.6501 10.055 53.0644
133.492 10.5475 9.96483 53.2114
133.593 10.4532 9.88426 53.3604
133.693 10.3674 9.8129 53.5123
133.793 10.2901 9.75031 53.6681
133.893 10.2212 9.69599 53.8286
133.993 10.1605 9.6494 53.9948
134.094 10.108 9.60997 54.1675
134.194 10.0633 9.5771 54.3475
134.294 10.0261 9.5502 54.5355
134.394 9.99624 9.52864 54.7321
134.495 9.97323 9.51181 54.938
134.595 9.95671 9.49912 55.1536
134.695 9.94627 9.48998 55.3795
134.795 9.94147 9.48383 55.6158
134.895 9.94188 9.48013 55.8629
134.996 9.94702 9.4784 56.1209
135.096 9.95646 9.47815 56.3896
135.196 9.96972 9.47899 56.669
135.296 9.98636 9.48052 56.9587
135.397 10.0059 9.48242 57.2582
135.497 10.028 9.48439 57.5669
135.597 10.0522 9.48619 57.8839
135.697 10.0781 9.48762 58.2082
135.797 10.1053 9.48853 58.5386
135.898 10.1335 9.4888 58.8738
135.998 10.1623 9.48836 59.2123
136.098 10.1915 9.48717 59.5522
136.198 10.2207 9.48524 59.8919
136.298 10.2498 9.48261 60.2293
136.399 10.2785 9.47934 60.5625
136.499 10.3067 9.47555 60.8894
136.599 10.3342 9.47135 61.2077
136.699 10.3609 9.46692 61.5154
136.8 10.3867 9.46244 61.8104
136.9 10.4116 9.45813 62.0907
137 10.4356 9.4542 62.3542
137.1 10.4588 9.45093 62.5994
137.2 10.4812 9.44858 62.8245
137.301 10.5028 9.44746 63.0282
137.401 10.5239 9.44786 63.2093
137.501 10.5447 9.45012 63.3669
137.601 10.5652 9.45457 63.5005
137.702 10.5857 9.46155 63.6097
137.802 10.6064 9.47142 63.6944
137.902 10.6277 9.48453 63.7549
138.002 10.6497 9.50123 63.7918
138.102 10.6728 9.52188 63.8059
138.203 10.6973 9.54682 63.7983
138.303 10.7235 9.57639 63.7702
138.403 10.7516 9.61091 63.7233
138.503 10.782 9.65069 63.6591
138.604 10.815 9.696 63.5796
138.704 10.8509 9.7471 63.4867
138.804 10.8899 9.80424 63.3825
138.904 10.9322 9.8676 63.2688
139.004 10.9782 9.93737 63.1479
139.105 11.0281 10.0137 63.0217
139.205 11.082 10.0966 62.8921
139.305 11.1401 10.1863 62.761
139.405 11.2025 10.2828 62.6301
139.506 11.2694 10.386 62.501
139.606 11.3408 10.4959 62.3752
139.706 11.4169 10.6126 62.2538
139.806 11.4976 10.7358 62.1381
139.906 11.583 10.8654 62.029
140.007 11.673 11.0014 61.9274
140.107 11.7677 11.1436 61.8337
140.207 11.8669 11.2917 61.7487
140.307 11.9707 11.4455 61.6727
140.407 12.0788 11.6049 61.606
140.508 12.1912 11.7695 61.5487
140.608 12.3078 11.9391 61.5011
140.708 12.4285 12.1134 61.4631
140.808 12.553 12.2921 61.4348
140.909 12.6812 12.4748 61.4161
141.009 12.8129 12.6612 61.4069
141.109 12.948 12.8509 61.4071
141.209 13.0862 13.0434 61.4166
141.309 13.2272 13.2383 61.4351
141.41 13.3708 13.4352 61.4625
141.51 13.5168 13.6334 61.4984
141.61 13.6649 13.8325 61.5425
141.71 13.8146 14.0317 61.5945
141.811 13.9658 14.2305 61.6537
141.911 14.118 14.4282 61.7197
142.011 14.2708 14.6238 61.7917
142.111 14.4239 14.8168 61.869
142.211 14.5767 15.0061 61.9506
142.312 14.7287 15.191 62.0356
142.412 14.8796 15.3705 62.1227
142.512 15.0287 15.5436 62.2107
142.612 15.1756 15.7094 62.2982
142.713 15.3195 15.8669 62.3838
142.813 15.4599 16.0151 62.4657
142.913 15.5963 16.153 62.5425
143.013 15.728 16.2796 62.6124
143.113 15.8543 16.394 62.6738
143.214 15.9746 16.4954 62.7249
143.314 16.0883 16.5828 62.7642
143.414 16.1947 16.6556 62.79
143.514 16.2933 16.713 62.8008
143.615 16.3835 16.7546 62.7954
143.715 16.4647 16.7797 62.7726
143.815 16.5363 16.788 62.7313
143.915 16.5979 16.7792 62.6708
144.015 16.649 16.7533 62.5905
144.116 16.6893 16.7103 62.49
144.216 16.7183 16.6501 62.3691
144.316 16.7358 16.5732 62.228
144.416 16.7415 16.4799 62.067
144.516 16.7353 16.3707 61.8867
144.617 16.7171 16.2462 61.6877
144.717 16.6868 16.1072 61.4709
144.817 16.6445 15.9544 61.2375
144.917 16.5903 15.7889 60.9885
145.018 16.5244 15.6115 60.7252
145.118 16.447 15.4234 60.449
145.218 16.3584 15.2256 60.1612
145.318 16.2591 15.0193 59.8631
145.418 16.1494 14.8056 59.556
145.519 16.0299 14.5857 59.2411
145.619 15.9011 14.3608 58.9196
145.719 15.7636 14.1321 58.5924
145.819 15.6182 13.9005 58.2606
145.92 15.4654 13.6672 57.9247
146.02 15.3061 13.4333 57.5855
146.12 15.1411 13.1996 57.2434
146.22 14.971 12.9671 56.8986
146.32 14.7968 12.7367 56.5514
146.421 14.6193 12.509 56.2017
146.521 14.4392 12.2847 55.8495
146.621 14.2574 12.0646 55.4945
146.721 14.0747 11.849 55.1365
146.822 13.8919 11.6384 54.7751
146.922 13.7098 11.4333 54.41
147.022 13.5291 11.2339 54.0407
147.122 13.3504 11.0405 53.6668
147.222 13.1744 10.8532 53.288
147.323 13.0017 10.6721 52.9038
147.423 12.8328 10.4974 52.514
147.523 12.6681 10.3289 52.1183
147.623 12.5081 10.1668 51.7165
147.724 12.353 10.0108 51.3085
147.824 12.2031 9.86091 50.8943
147.924 12.0584 9.71691 50.4738
148.024 11.9191 9.57862 50.0472
148.124 11.7852 9.44583 49.6147
148.225 11.6565 9.31832 49.1764
148.325 11.533 9.19582 48.7326
148.425 11.4142 9.07807 48.2836
148.525 11.3001 8.96478 47.8298
148.625 11.1901 8.85568 47.3716
148.726 11.0838 8.75047 46.9092
148.826 10.9809 8.64887 46.4431
148.926 10.8808 8.55058 45.9738
149.026 10.783 8.45533 45.5015
149.127 10.6869 8.36285 45.0269
149.227 10.592 8.27289 44.5502
149.327 10.4979 8.18521 44.0719
149.427 10.4039 8.0996 43.5924
149.527 10.3095 8.01587 43.1123
149.628 10.2145 7.93385 42.6321
149.728 10.1182 7.85342 42.1522
149.828 10.0204 7.77445 41.6732
149.928 9.9208 7.6969 41.1957
150.029 9.81916 7.6207 40.7204
150.129 9.71534 7.54587 40.2479
150.229 9.60925 7.47241 39.779
150.329 9.50089 7.40039 39.3145
150.429 9.39034 7.32989 38.8551
150.53 9.27774 7.26102 38.4017
150.63 9.1633 7.19389 37.955
150.73 9.04732 7.12866 37.516
150.83 8.93014 7.06548 37.0855
150.931 8.81214 7.00451 36.6643
151.031 8.69378 6.94592 36.253
151.131 8.57554 6.88987 35.8524
151.231 8.45792 6.8365 35.4632
151.331 8.34144 6.78595 35.0856
151.432 8.22665 6.73835 34.7203
151.532 8.11407 6.69377 34.3673
151.632 8.00423 6.65228 34.0269
151.732 7.89763 6.61392 33.6989
151.833 7.79474 6.57868 33.3833
151.933 7.69599 6.54652 33.0797
152.033 7.6018 6.51738 32.7876
152.133 7.51248 6.49116 32.5065
152.233 7.42836 6.4677 32.2356
152.334 7.34965 6.44686 31.9742
152.434 7.27653 6.42842 31.7214
152.534 7.20913 6.41217 31.4762
152.634 7.1475 6.39788 31.2378
152.734 7.09164 6.3853 31.0052
152.835 7.0415 6.37416 30.7774
152.935 6.99697 6.36422 30.5537
153.035 6.95788 6.35521 30.3332
153.135 6.92404 6.3469 30.1152
153.236 6.8952 6.33905 29.8993
153.336 6.87109 6.33145 29.6851
153.436 6.85141 6.32391 29.4722
153.536 6.83583 6.31627 29.2606
153.636 6.82401 6.3084 29.0504
153.737 6.8156 6.30021 28.8418
153.837 6.81024 6.29162 28.6353
153.937 6.80757 6.28261 28.4313
154.037 6.80726 6.27316 28.2306
154.138 6.80896 6.26332 28.0339
154.238 6.81234 6.25314 27.8421
154.338 6.81709 6.24271 27.6561
154.438 6.82294 6.23213 27.4768
154.538 6.82962 6.22154 27.3051
154.639 6.8369 6.21109 27.142
154.739 6.84456 6.20093 26.9883
154.839 6.85243 6.19123 26.8448
154.939 6.86036 6.18218 26.712
155.04 6.86824 6.17395 26.5906
155.14 6.87598 6.16673 26.4808
155.24 6.88353 6.1607 26.383
155.34 6.89087 6.15603 26.2971
155.44 6.89802 6.15291 26.223
155.541 6.90502 6.1515 26.1605
155.641 6.91196 6.15196 26.1092
155.741 6.91894 6.15445 26.0685
155.841 6.92611 6.15913 26.0376
155.942 6.93363 6.16614 26.0158
156.042 6.94171 6.17562 26.0021
156.142 6.95058 6.18772 25.9956
156.242 6.96048 6.20256 25.9952
156.342 6.97171 6.22028 25.9999
156.443 6.98455 6.24099 26.0086
156.543 6.99933 6.26482 26.0203
156.643 7.01637 6.29187 26.0338
156.743 7.03603 6.32225 26.0482
156.843 7.05865 6.35605 26.0625
156.944 7.08459 6.39336 26.076
157.044 7.11421 6.43422 26.0876
157.144 7.14785 6.4787 26.0968
157.244 7.18587 6.5268 26.1027
157.345 7.22857 6.57853 26.1048
157.445 7.27627 6.63385 26.1024
157.545 7.32925 6.6927 26.0952
157.645 7.38773 6.75496 26.0826
157.745 7.45195 6.8205 26.064
157.846 7.52205 6.88914 26.0393
157.946 7.59817 6.96063 26.0078
158.046 7.68038 7.03472 25.9693
158.146 7.76868 7.11108 25.9233
158.247 7.86305 7.18936 25.8696
158.347 7.96338 7.26915 25.8076
158.447 8.06953 7.35003 25.737
158.547 8.18127 7.43153 25.6575
158.647 8.29832 7.51314 25.5687
158.748 8.42035 7.59435 25.4704
158.848 8.54695 7.67461 25.3622
158.948 8.67769 7.75338 25.244
159.048 8.81205 7.83012 25.1156
159.149 8.94947 7.90427 24.977
159.249 9.08937 7.97531 24.8281
159.349 9.23109 8.04273 24.6692
159.449 9.37398 8.10604 24.5005
159.549 9.51731 8.16481 24.3223
159.65 9.66038 8.21861 24.1352
159.75 9.80243 8.26709 23.9397
159.85 9.94272 8.30994 23.7367
159.95 10.0805 8.3469 23.5269
160.051 10.215 8.37776 23.3114
160.151 10.3455 8.40238 23.0912
160.251 10.4713 8.42067 22.8675
160.351 10.5917 8.43258 22.6413
160.451 10.7059 8.43815 22.414
160.552 10.8135 8.43742 22.1868
160.652 10.9137 8.43053 21.9608
160.752 11.006 8.41762 21.7373
160.852 11.09 8.39888 21.5173
160.952 11.1652 8.37456 21.3018
161.053 11.2311 8.34488 21.0916
161.153 11.2876 8.31014 20.8877
161.253 11.3342 8.27062 20.6905
161.353 11.3709 8.22663 20.5004
161.454 11.3974 8.17847 20.3179
161.554 11.4138 8.12646 20.1431
161.654 11.42 8.07092 19.9758
161.754 11.4161 8.01214 19.8161
161.854 11.4023 7.95045 19.6634
161.955 11.3788 7.88613 19.5175
162.055 11.3458 7.81948 19.3778
162.155 11.3037 7.75078 19.2438
162.255 11.2528 7.68031 19.1147
162.356 11.1937 7.60833 18.99
162.456 11.1268 7.5351 18.8689
162.556 11.0527 7.46088 18.751
162.656 10.972 7.38592 18.6355
162.756 10.8852 7.31045 18.5219
162.857 10.7931 7.23472 18.41
162.957 10.6962 7.15896 18.2993
163.057 10.5953 7.0834 18.1897
163.157 10.4911 7.00826 18.081
163.258 10.3842 6.93377 17.9734
163.358 10.2752 6.86014 17.867
163.458 10.165 6.78758 17.762
163.558 10.054 6.71627 17.6589
163.658 9.94299 6.64642 17.558
163.759 9.83243 6.57818 17.4598
163.859 9.72287 6.51173 17.3649
163.959 9.61482 6.44719 17.2739
164.059 9.50871 6.38468 17.1872
164.16 9.40493 6.3243 17.1055
164.26 9.30384 6.26613 17.0291
164.36 9.20569 6.21021 16.9585
164.46 9.11074 6.15657 16.894
164.56 9.01914 6.1052 16.8359
164.661 8.93103 6.05609 16.7842
164.761 8.84647 6.00919 16.7389
164.861 8.76549 5.96443 16.7
164.961 8.68806 5.92171 16.6671
165.061 8.61413 5.88095 16.6401
165.162 8.54361 5.84201 16.6185
165.262 8.47636 5.80479 16.6017
165.362 8.41225 5.76915 16.5892
165.462 8.3511 5.73495 16.5804
165.563 8.29273 5.70209 16.5746
165.663 8.23696 5.67043 16.5712
165.763 8.18359 5.63988 16.5695
165.863 8.13244 5.61035 16.5689
165.963 8.08331 5.58175 16.5688
166.064 8.03605 5.55405 16.5687
166.164 7.99048 5.52722 16.5681
166.264 7.94648 5.50125 16.5666
166.364 7.90391 5.47617 16.5639
166.465 7.86268 5.45201 16.5598
166.565 7.8227 5.42886 16.5542
166.665 7.78393 5.40681 16.5469
166.765 7.74632 5.38596 16.538
166.865 7.70986 5.36645 16.5275
166.966 7.67457 5.34844 16.5156
167.066 7.64047 5.33207 16.5023
167.166 7.60761 5.31753 16.4878
167.266 7.57607 5.30497 16.4723
167.367 7.54591 5.29459 16.4559
167.467 7.51725 5.28657 16.4387
167.567 7.49019 5.28106 16.4209
167.667 7.46485 5.27825 16.4024
167.767 7.44136 5.2783 16.3833
167.868 7.41987 5.28135 16.3635
167.968 7.40051 5.28755 16.343
168.068 7.38344 5.29702 16.3215
168.168 7.36881 5.30988 16.299
168.269 7.35679 5.32624 16.2753
168.369 7.34753 5.34618 16.25
168.469 7.3412 5.36979 16.223
168.569 7.33797 5.39713 16.1941
168.669 7.33799 5.42826 16.163
168.77 7.34144 5.46321 16.1295
168.87 7.34845 5.50204 16.0937
168.97 7.3592 5.54475 16.0553
169.07 7.37383 5.59137 16.0143
169.17 7.39248 5.64189 15.971
169.271 7.41527 5.6963 15.9253
169.371 7.44232 5.75457 15.8776
169.471 7.47374 5.81668 15.8281
169.571 7.5096 5.88254 15.7772
169.672 7.54997 5.9521 15.7254
169.772 7.59488 6.02524 15.6732
169.872 7.64436 6.10184 15.621
169.972 7.69838 6.18175 15.5696
170.072 7.75691 6.26478 15.5193
170.173 7.81985 6.35072 15.4709
170.273 7.88712 6.43933 15.4248
170.373 7.95855 6.53031 15.3816
170.473 8.03397 6.62335 15.3417
170.574 8.11316 6.71811 15.3055
170.674 8.19589 6.81419 15.2732
170.774 8.28186 6.91119 15.2452
170.874 8.37076 7.00866 15.2215
170.974 8.46227 7.10613 15.2022
171.075 8.55602 7.20312 15.1872
171.175 8.65163 7.29914 15.1765
171.275 8.74871 7.39367 15.1698
171.375 8.84684 7.48623 15.1669
171.476 8.94562 7.5763 15.1675
171.576 9.04463 7.66342 15.1712
171.676 9.14348 7.74713 15.1778
171.776 9.24176 7.827 15.187
171.876 9.3391 7.90265 15.1983
171.977 9.43514 7.97374 15.2117
172.077 9.52954 8.03999 15.2268
172.177 9.62201 8.10116 15.2435
172.277 9.71228 8.1571 15.2619
172.377 9.8001 8.20769 15.2819
172.478 9.88527 8.25291 15.3037
172.578 9.96763 8.29278 15.3275
172.678 10.0471 8.32742 15.3535
172.778 10.1235 8.35699 15.3822
172.879 10.1968 8.38172 15.4139
172.979 10.267 8.4019 15.4491
173.079 10.3341 8.41787 15.4883
173.179 10.3982 8.43002 15.532
173.279 10.4593 8.43877 15.5807
173.38 10.5174 8.44458 15.6349
173.48 10.5727 8.44794 15.6948
173.58 10.6253 8.44933 15.7609
173.68 10.6752 8.44926 15.8334
173.781 10.7226 8.44822 15.9124
173.881 10.7676 8.44671 15.9978
173.981 10.8103 8.4452 16.0896
174.081 10.8508 8.44413 16.1876
174.181 10.8891 8.44392 16.2913
174.282 10.9254 8.44495 16.4002
174.382 10.9596 8.44756 16.5138
174.482 10.9919 8.45205 16.6313
174.582 11.0222 8.45868 16.7519
174.683 11.0506 8.46765 16.8748
174.783 11.0771 8.47913 16.9991
174.883 11.1015 8.49323 17.1238
174.983 11.1241 8.51002 17.2479
175.083 11.1445 8.52953 17.3706
175.184 11.163 8.55175 17.4909
175.284 11.1793 8.57662 17.6082
175.384 11.1935 8.60406 17.7216
175.484 11.2055 8.63395 17.8304
175.585 11.2154 8.66613 17.9342
175.685 11.223 8.70045 18.0325
175.785 11.2283 8.73669 18.1249
175.885 11.2313 8.77465 18.2114
175.985 11.2321 8.81408 18.2917
176.086 11.2307 8.85475 18.3658
176.186 11.227 8.89639 18.4339
176.286 11.2211 8.93873 18.496
176.386 11.213 8.98148 18.5523
176.486 11.2029 9.02438 18.603
176.587 11.1907 9.06712 18.6485
176.687 11.1766 9.10942 18.6888
176.787 11.1606 9.15097 18.7243
176.887 11.1428 9.1915 18.755
176.988 11.1234 9.23072 18.7812
177.088 11.1023 9.26834 18.8028
177.188 11.0798 9.30409 18.8198
177.288 11.056 9.33771 18.8322
177.388 11.0308 9.36896 18.8397
177.489 11.0045 9.39761 18.8422
177.589 10.9771 9.42343 18.8394
177.689 10.9488 9.44626 18.8308
177.789 10.9196 9.46593 18.8163
177.89 10.8897 9.48231 18.7952
177.99 10.8591 9.4953 18.7673
178.09 10.8279 9.50483 18.7322
178.19 10.7963 9.51088 18.6894
178.29 10.7643 9.51345 18.6387
178.391 10.7321 9.51258 18.5798
178.491 10.6997 9.50836 18.5126
178.591 10.6672 9.50089 18.437
178.691 10.6347 9.49034 18.3531
178.792 10.6024 9.47687 18.2609
178.892 10.5702 9.4607 18.1607
178.992 10.5384 9.44206 18.0529
179.092 10.507 9.4212 17.9379
179.192 10.476 9.39839 17.8163
179.293 10.4456 9.3739 17.6887
179.393 10.4159 9.348 17.5557
179.493 10.3868 9.32097 17.4181
179.593 10.3585 9.29306 17.2767
179.694 10.331 9.26454 17.1321
179.794 10.3043 9.23562 16.9851
179.894 10.2784 9.2065 16.8365
179.994 10.2534 9.17736 16.6868
180.094 10.2293 9.14834 16.5367
180.195 10.2059 9.11953 16.3866
180.295 10.1832 9.09101 16.237
180.395 10.1613 9.0628 16.0882
180.495 10.1399 9.03488 15.9403
180.595 10.119 9.00723 15.7937
180.696 10.0985 8.97976 15.6482
180.796 10.0782 8.95235 15.5038
180.896 10.058 8.92488 15.3604
180.996 10.0378 8.8972 15.2179
181.097 10.0174 8.86913 15.076
181.197 9.99659 8.84049 14.9346
181.297 9.97529 8.8111 14.7933
181.397 9.95331 8.78078 14.652
181.497 9.93052 8.74935 14.5105
181.598 9.90675 8.71664 14.3687
181.698 9.88189 8.68252 14.2265
181.798 9.85582 8.64686 14.0839
181.898 9.82844 8.60956 13.9411
181.999 9.79967 8.57054 13.7983
182.099 9.76945 8.52978 13.6557
182.199 9.73773 8.48724 13.5137
182.299 9.70452 8.44296 13.3728
182.399 9.6698 8.39698 13.2335
182.5 9.63362 8.34937 13.0964
182.6 9.59603 8.30025 12.9621
182.7 9.55711 8.24973 12.8312
182.8 9.51696 8.19796 12.7046
182.901 9.47572 8.14511 12.5827
183.001 9.43351 8.09135 12.4664
183.101 9.39052 8.03687 12.356
183.201 9.34692 7.98186 12.2522
183.301 9.30292 7.92652 12.1554
183.402 9.25872 7.87104 12.066
183.502 9.21457 7.81563 11.9843
183.602 9.1707 7.76048 11.9103
183.702 9.12736 7.70577 11.8442
183.803 9.08481 7.65169 11.7859
183.903 9.04333 7.59843 11.7353
184.003 9.00319 7.54615 11.6922
184.103 8.96466 7.49503 11.6562
184.203 8.92804 7.44523 11.6269
184.304 8.89361 7.39694 11.6041
184.404 8.86166 7.35031 11.5871
184.504 8.83248 7.30551 11.5755
184.604 8.80634 7.26274 11.5688
184.704 8.78354 7.22216 11.5665
184.805 8.76434 7.18398 11.5682
184.905 8.74903 7.14838 11.5735
185.005 8.73785 7.11558 11.5819
185.105 8.73107 7.08578 11.5931
185.206 8.72891 7.0592 11.6068
185.306 8.7316 7.03606 11.6228
185.406 8.73935 7.0166 11.6409
185.506 8.75233 7.00103 11.6608
185.606 8.7707 6.98957 11.6826
185.707 8.79461 6.98243 11.706
185.807 8.82414 6.97981 11.731
185.907 8.85938 6.98189 11.7575
186.007 8.90037 6.98884 11.7854
186.108 8.94711 7.00077 11.8145
186.208 8.99957 7.0178 11.8448
186.308 9.05768 7.04 11.876
186.408 9.12134 7.06739 11.908
186.508 9.19039 7.09997 11.9403
186.609 9.26464 7.13768 11.9727
186.709 9.34387 7.18043 12.0047
186.809 9.4278 7.22808 12.0361
186.909 9.51614 7.28044 12.0662
187.01 9.60852 7.33727 12.0946
187.11 9.70459 7.39832 12.1209
187.21 9.80392 7.46325 12.1445
187.31 9.90608 7.53174 12.1649
187.41 10.0106 7.60339 12.1818
187.511 10.117 7.67779 12.1947
187.611 10.2248 7.75452 12.2033
187.711 10.3334 7.83311 12.2075
187.811 10.4423 7.91311 12.207
187.912 10.5511 7.99404 12.2019
188.012 10.659 8.07542 12.1923
188.112 10.7657 8.15678 12.1783
188.212 10.8706 8.23765 12.1602
188.312 10.973 8.31757 12.1386
188.413 11.0727 8.39608 12.114
188.513 11.1689 8.47277 12.0869
188.613 11.2613 8.54721 12.0581
188.713 11.3494 8.61903 12.0284
188.813 11.4328 8.68786 11.9984
188.914 11.5111 8.75335 11.9691
189.014 11.5839 8.8152 11.9412
189.114 11.6509 8.87312 11.9155
189.214 11.7117 8.92685 11.8926
189.315 11.7662 8.97615 11.8733
189.415 11.8141 9.02082 11.8579
189.515 11.8552 9.06069 11.8471
189.615 11.8894 9.09559 11.8409
189.715 11.9166 9.12541 11.8396
189.816 11.9368 9.15006 11.8433
189.916 11.95 9.16945 11.8517
190.016 11.9563 9.18356 11.8647
190.116 11.9557 9.19236 11.8819
190.217 11.9484 9.19588 11.9028
190.317 11.9347 9.19416 11.9269
190.417 11.9147 9.18728 11.9534
190.517 11.8889 9.17534 11.9818
190.617 11.8575 9.15849 12.0113
190.718 11.8209 9.13689 12.0411
190.818 11.7796 9.11075 12.0706
190.918 11.7341 9.08029 12.0991
191.018 11.6849 9.04578 12.126
191.119 11.6325 9.00751 12.1508
191.219 11.5776 8.9658 12.1731
191.319 11.5206 8.92099 12.1925
191.419 11.4622 8.87345 12.2088
191.519 11.4031 8.82356 12.2219
191.62 11.3438 8.77174 12.2319
191.72 11.285 8.71839 12.2388
191.82 11.2273 8.66396 12.2429
191.92 11.1713 8.60886 12.2444
192.021 11.1174 8.55356 12.2438
192.121 11.0664 8.49847 12.2415
192.221 11.0187 8.44404 12.2379
192.321 10.9747 8.39069 12.2334
192.421 10.9348 8.33883 12.2285
192.522 10.8995 8.28888 12.2237
192.622 10.8691 8.24122 12.2192
192.722 10.8438 8.19623 12.2153
192.822 10.8239 8.15426 12.2124
192.922 10.8094 8.11565 12.2104
193.023 10.8006 8.08073 12.2095
193.123 10.7974 8.04979 12.2096
193.223 10.7998 8.02314 12.2105
193.323 10.8079 8.00105 12.2121
193.424 10.8215 7.98379 12.2139
193.524 10.8404 7.97161 12.2157
193.624 10.8646 7.96475 12.2169
193.724 10.8938 7.96345 12.2172
193.824 10.9277 7.96793 12.2161
193.925 10.9662 7.97843 12.213
194.025 11.0089 7.99514 12.2076
194.125 11.0557 8.01828 12.1995
194.225 11.1062 8.04803 12.1882
194.326 11.1601 8.08458 12.1735
194.426 11.2171 8.12809 12.1553
194.526 11.2771 8.17869 12.1334
194.626 11.3396 8.23652 12.1078
194.726 11.4046 8.30166 12.0785
194.827 11.4716 8.37415 12.0458
194.927 11.5405 8.45401 12.0098
195.027 11.6111 8.54119 11.971
195.127 11.6831 8.63561 11.9296
195.228 11.7563 8.7371 11.886
195.328 11.8305 8.84544 11.8408
195.428 11.9056 8.96035 11.7944
195.528 11.9812 9.08146 11.7472
195.628 12.0573 9.20832 11.6997
195.729 12.1335 9.34041 11.6523
195.829 12.2098 9.47713 11.6052
195.929 12.2858 9.61781 11.5588
196.029 12.3613 9.76169 11.5133
196.13 12.4361 9.90796 11.4687
196.23 12.5098 10.0557 11.4252
196.33 12.5823 10.2041 11.3827
196.43 12.6532 10.352 11.341
196.53 12.7222 10.4985 11.3
196.631 12.789 10.6425 11.2594
196.731 12.8531 10.783 11.2189
196.831 12.9143 10.9189 11.1784
196.931 12.9721 11.0492 11.1373
197.031 13.0262 11.1729 11.0954
197.132 13.0762 11.2891 11.0523
197.232 13.1216 11.3967 11.0079
197.332 13.1621 11.4951 10.9618
197.432 13.1974 11.5834 10.914
197.533 13.2269 11.6609 10.8642
197.633 13.2504 11.7271 10.8125
197.733 13.2675 11.7815 10.7589
197.833 13.2779 11.8238 10.7036
197.933 13.2813 11.8536 10.6467
198.034 13.2773 11.8708 10.5885
198.134 13.2658 11.8754 10.5293
198.234 13.2466 11.8675 10.4695
198.334 13.2194 11.8473 10.4094
198.435 13.1842 11.8149 10.3495
198.535 13.1409 11.7708 10.2902
198.635 13.0894 11.7155 10.2317
198.735 13.0297 11.6494 10.1746
198.835 12.962 11.5731 10.119
198.936 12.8863 11.4874 10.0651
199.036 12.8027 11.3928 10.0133
199.136 12.7115 11.2901 9.96341
199.236 12.613 11.1802 9.91558
199.337 12.5074 11.0637 9.8697
199.437 12.3952 10.9414 9.82559
199.537 12.2767 10.8141 9.78304
199.637 12.1524 10.6826 9.74174
199.737 12.0229 10.5477 9.70136
199.838 11.8887 10.41 9.66151
199.938 11.7503 10.2704 9.6218
200.038 11.6086 10.1295 9.58183
200.138 11.4641 9.98793 9.54123
200.239 11.3175 9.84637 9.49966
200.339 11.1696 9.7054 9.45682
200.439 11.0212 9.5656 9.41249
200.539 10.8731 9.42749 9.36653
200.639 10.726 9.29158 9.31888
200.74 10.5808 9.15834 9.26958
200.84 10.4382 9.02821 9.21876
200.94 10.2991 8.9016 9.16666
201.04 10.1642 8.77888 9.1136
201.14 10.0342 8.66041 9.05999
201.241 9.90985 8.54653 9.0063
201.341 9.79186 8.43752 8.95307
201.441 9.6808 8.33366 8.90087
201.541 9.57725 8.23521 8.85029
201.642 9.4817 8.14238 8.80195
201.742 9.39458 8.05537 8.75641
201.842 9.31624 7.97436 8.71423
201.942 9.24696 7.8995 8.67589
202.042 9.18692 7.8309 8.64182
202.143 9.13624 7.76867 8.61236
202.243 9.09492 7.71287 8.58774
202.343 9.06292 7.66356 8.56813
202.443 9.04007 7.62074 8.55355
202.544 9.02614 7.58442 8.54395
202.644 9.02081 7.55455 8.53918
202.744 9.02369 7.53109 8.53898
202.844 9.03434 7.51396 8.54304
202.944 9.05222 7.50304 8.55096
203.045 9.07677 7.49821 8.56232
203.145 9.10736 7.49931 8.57665
203.245 9.14334 7.50619 8.59348
203.345 9.18403 7.51863 8.61236
203.446 9.22873 7.53644 8.63284
203.546 9.27672 7.55937 8.65454
203.646 9.3273 7.58717 8.67713
203.746 9.37978 7.61957 8.70035
203.846 9.43348 7.65627 8.72404
203.947 9.48776 7.69697 8.74809
204.047 9.542 7.74133 8.77252
204.147 9.59565 7.789 8.79741
204.247 9.64818 7.83961 8.82293
204.348 9.69913 7.89275 8.84931
204.448 9.7481 7.94801 8.87685
204.548 9.79475 8.00497 8.90589
204.648 9.83879 8.06315 8.9368
204.748 9.88 8.12209 8.96994
204.849 9.91823 8.18128 9.00566
204.949 9.95339 8.24022 9.0443
205.049 9.98542 8.29837 9.08612
205.149 10.0144 8.3552 9.13132
205.249 10.0403 8.41015 9.18003
205.35 10.0632 8.46268 9.23227
205.45 10.0834 8.51223 9.28797
205.55 10.1011 8.55826 9.34693
205.65 10.1163 8.60023 9.40887
205.751 10.1294 8.63764 9.47339
205.851 10.1406 8.66999 9.54
205.951 10.1502 8.69684 9.60813
206.051 10.1584 8.71775 9.67712
206.151 10.1655 8.73237 9.74629
206.252 10.1717 8.74036 9.81489
206.352 10.1773 8.74148 9.88219
206.452 10.1825 8.73553 9.94744
206.552 10.1874 8.72237 10.01
206.653 10.1922 8.70194 10.0691
206.753 10.197 8.67427 10.1242
206.853 10.202 8.63942 10.1749
206.953 10.2072 8.59757 10.2208
207.053 10.2125 8.54895 10.2614
207.154 10.218 8.49385 10.2968
207.254 10.2236 8.43265 10.3269
207.354 10.2292 8.36576 10.3516
207.454 10.2347 8.29366 10.3713
207.555 10.2398 8.21688 10.3861
207.655 10.2444 8.13597 10.3965
207.755 10.2481 8.05152 10.4029
207.855 10.2508 7.96414 10.4058
207.955 10.2521 7.87444 10.4058
208.056 10.2517 7.78305 10.4034
208.156 10.2493 7.69057 10.3991
208.256 10.2445 7.59759 10.3934
208.356 10.237 7.50468 10.387
208.457 10.2263 7.41238 10.3801
208.557 10.2123 7.32117 10.3731
208.657 10.1944 7.23151 10.3664
208.757 10.1724 7.14381 10.36
208.857 10.146 7.05842 10.3542
208.958 10.115 6.97565 10.3489
209.058 10.079 6.89575 10.3441
209.158 10.0379 6.81891 10.3396
209.258 9.99146 6.74529 10.3353
209.358 9.93962 6.675 10.3309
209.459 9.88228 6.6081 10.3261
209.559 9.81941 6.54461 10.3207
209.659 9.75103 6.48452 10.3144
209.759 9.67721 6.42778 10.3069
209.86 9.59807 6.37435 10.2981
209.96 9.51377 6.32412 10.2876
210.06 9.42454 6.277 10.2755
210.16 9.33062 6.23288 10.2617
210.26 9.23231 6.19164 10.2463
210.361 9.12995 6.15316 10.2293
210.461 9.0239 6.11731 10.2111
210.561 8.91455 6.08397 10.1918
210.661 8.80231 6.05301 10.1719
210.762 8.68761 6.02432 10.1517
210.862 8.57089 5.99777 10.1318
210.962 8.45257 5.97326 10.1126
211.062 8.33309 5.95065 10.0946
211.162 8.21289 5.92984 10.0784
211.263 8.09237 5.91071 10.0643
211.363 7.97192 5.89314 10.053
211.463 7.85191 5.87699 10.0446
211.563 7.7327 5.86214 10.0396
211.664 7.61458 5.84846 10.0382
211.764 7.49785 5.83579 10.0405
211.864 7.38276 5.82398 10.0465
211.964 7.26951 5.81288 10.0563
212.064 7.1583 5.80231 10.0696
212.165 7.04926 5.79212 10.0863
212.265 6.94253 5.78212 10.106
212.365 6.83819 5.77215 10.1283
212.465 6.73629 5.76202 10.1529
212.566 6.63688 5.75158 10.1791
212.666 6.53997 5.74065 10.2065
212.766 6.44556 5.72908 10.2346
212.866 6.35364 5.71673 10.2629
212.966 6.26417 5.70348 10.2909
213.067 6.17713 5.68921 10.3182
213.167 6.09247 5.67383 10.3443
213.267 6.01015 5.65725 10.369
213.367 5.93013 5.63944 10.392
213.467 5.85237 5.62035 10.4131
213.568 5.77684 5.59996 10.4323
213.668 5.70349 5.57829 10.4496
213.768 5.63231 5.55534 10.4649
213.868 5.56326 5.53116 10.4783
213.969 5.49634 5.50579 10.4901
214.069 5.43153 5.47929 10.5004
214.169 5.36881 5.45172 10.5094
214.269 5.30818 5.42315 10.5173
214.369 5.24963 5.39366 10.5242
214.47 5.19313 5.3633 10.5305
214.57 5.13868 5.33215 10.536
214.67 5.08626 5.30026 10.541
214.77 5.03584 5.26768 10.5455
214.871 4.98739 5.23447 10.5492
214.971 4.94087 5.20064 10.5522
215.071 4.89623 5.16624 10.5541
215.171 4.85341 5.13127 10.5548
215.271 4.81234 5.09576 10.5537
215.372 4.77297 5.05971 10.5506
215.472 4.7352 5.02312 10.5449
215.572 4.69895 4.98601 10.5363
215.672 4.66414 4.9484 10.5241
215.773 4.63067 4.91029 10.508
215.873 4.59845 4.87172 10.4876
215.973 4.5674 4.83274 10.4623
216.073 4.53742 4.79341 10.4319
216.173 4.50843 4.75381 10.3961
216.274 4.48037 4.71404 10.3548
216.374 4.45317 4.67423 10.3079
216.474 4.42677 4.63452 10.2555
216.574 4.40114 4.59508 10.1977
216.675 4.37624 4.55611 10.1347
216.775 4.35208 4.51783 10.0671
216.875 4.32864 4.48045 9.99515
216.975 4.30595 4.44425 9.91952
217.075 4.28405 4.40947 9.8408
217.176 4.26298 4.37639 9.75968
217.276 4.2428 4.34529 9.67686
217.376 4.22362 4.31645 9.59306
217.476 4.2055 4.29016 9.50899
217.576 4.18858 4.26667 9.42532
217.677 4.17296 4.24626 9.3427
217.777 4.15879 4.22917 9.26167
217.877 4.14621 4.21564 9.18271
217.977 4.13537 4.20588 9.1062
218.078 4.12646 4.20009 9.03243
218.178 4.11963 4.19843 8.96156
218.278 4.11509 4.20105 8.89364
218.378 4.11303 4.20808 8.82864
218.478 4.11365 4.21963 8.7664
218.579 4.11716 4.23578 8.70669
218.679 4.12379 4.2566 8.64919
218.779 4.13376 4.28214 8.59354
218.879 4.14731 4.31243 8.53931
218.98 4.16468 4.3475 8.48609
219.08 4.18611 4.38737 8.43342
219.18 4.21186 4.43204 8.38088
219.28 4.24218 4.48151 8.32809
219.38 4.27731 4.53579 8.27472
219.481 4.31751 4.59487 8.22048
219.581 4.36302 4.65874 8.1652
219.681 4.41409 4.72739 8.10876
219.781 4.47093 4.8008 8.05114
219.882 4.53377 4.87896 7.9924
219.982 4.60278 4.96183 7.93271
220.082 4.67815 5.04938 7.87229
220.182 4.76002 5.14154 7.81144
220.282 4.8485 5.23824 7.75052
220.383 4.94367 5.33939 7.68993
220.483 5.04555 5.44487 7.63008
220.583 5.15416 5.55452 7.5714
220.683 5.26942 5.66817 7.51428
220.784 5.39123 5.78558 7.45913
220.884 5.51944 5.90651 7.40625
220.984 5.65383 6.03064 7.35594
221.084 5.79411 6.15764 7.30837
221.184 5.93998 6.28712 7.26367
221.285 6.09103 6.41865 7.22186
221.385 6.24681 6.55177 7.18288
221.485 6.40685 6.68598 7.14658
221.585 6.57057 6.82073 7.11273
221.685 6.73739 6.95547 7.08101
221.786 6.90666 7.0896 7.05106
221.886 7.07769 7.22253 7.02246
221.986 7.24979 7.35365 6.99477
222.086 7.4222 7.48232 6.96753
222.187 7.59416 7.60796 6.94028
222.287 7.7649 7.72995 6.91258
222.387 7.93363 7.84773 6.88405
222.487 8.09959 7.96073 6.85436
222.587 8.26199 8.06844 6.82324
222.688 8.42008 8.17038 6.7905
222.788 8.57313 8.26612 6.75605
222.888 8.72044 8.35527 6.71989
222.988 8.86133 8.43748 6.68211
223.089 8.99517 8.51248 6.64289
223.189 9.12139 8.58004 6.60249
223.289 9.23944 8.63999 6.56126
223.389 9.34885 8.69221 6.51958
223.489 9.44918 8.73663 6.47789
223.59 9.54009 8.77324 6.43667
223.69 9.62125 8.80208 6.39638
223.79 9.69243 8.82322 6.3575
223.89 9.75345 8.83678 6.32045
223.991 9.80418 8.84293 6.28562
224.091 9.84456 8.84185 6.25334
224.191 9.8746 8.83376 6.22386
224.291 9.89435 8.81891 6.19734
224.391 9.90394 8.79756 6.17386
224.492 9.90352 8.77 6.15339
224.592 9.89333 8.73653 6.13581
224.692 9.87362 8.69746 6.12091
224.792 9.84473 8.65313 6.10841
224.893 9.80701 8.60387 6.09794
224.993 9.76085 8.55001 6.08908
225.093 9.70669 8.49193 6.08138
225.193 9.645 8.42998 6.07435
225.293 9.57628 8.36453 6.06751
225.394 9.50105 8.29597 6.0604
225.494 9.41984 8.22467 6.05258
225.594 9.33323 8.15102 6.04369
225.694 9.24179 8.07544 6.0334
225.794 9.14611 7.99832 6.02151
225.895 9.04679 7.92008 6.00786
225.995 8.94441 7.84113 5.99244
226.095 8.83959 7.7619 5.97531
226.195 8.73292 7.68278 5.95664
226.296 8.62499 7.6042 5.93669
226.396 8.51638 7.52657 5.91582
226.496 8.40767 7.45028 5.89445
226.596 8.2994 7.37572 5.87306
226.696 8.19212 7.30325 5.8522
226.797 8.08635 7.23322 5.83241
226.897 7.9826 7.16597 5.81426
226.997 7.88133 7.10177 5.79829
227.097 7.78302 7.04091 5.78501
227.198 7.6881 6.98362 5.77489
227.298 7.597 6.93009 5.76832
227.398 7.5101 6.88051 5.76562
227.498 7.42778 6.835 5.767
227.598 7.35041 6.79366 5.7726
227.699 7.27832 6.75656 5.78245
227.799 7.21185 6.72374 5.79646
227.899 7.1513 6.69519 5.81447
227.999 7.09697 6.67091 5.83623
228.1 7.04916 6.65087 5.86141
228.2 7.00815 6.63501 5.8896
228.3 6.97421 6.62327 5.92038
228.4 6.94762 6.61559 5.95327
228.5 6.92864 6.61192 5.9878
228.601 6.91754 6.61221 6.02348
228.701 6.91457 6.61641 6.05989
228.801 6.92 6.62451 6.0966
228.901 6.93405 6.63652 6.13328
229.002 6.95699 6.65248 6.16963
229.102 6.98903 6.67245 6.20545
229.202 7.0304 6.69654 6.24061
229.302 7.08129 6.7249 6.27508
229.402 7.14189 6.75769 6.30889
229.503 7.21234 6.79515 6.34214
229.603 7.29279 6.83753 6.37504
229.703 7.38331 6.88512 6.40782
229.803 7.48396 6.93825 6.44076
229.903 7.59476 6.99729 6.47419
230.004 7.71565 7.06263 6.50843
230.104 7.84656 7.13467 6.5438
230.204 7.98733 7.21385 6.58063
230.304 8.13776 7.3006 6.61917
230.405 8.29757 7.39539 6.65967
230.505 8.46644 7.49865 6.70228
230.605 8.64397 7.61085 6.74711
230.705 8.82968 7.73241 6.79419
230.805 9.02307 7.86375 6.84347
230.906 9.22353 8.00528 6.89484
231.006 9.43042 8.15734 6.94809
231.106 9.64303 8.32028 7.00297
231.206 9.86062 8.49439 7.05918
231.307 10.0824 8.67989 7.11637
231.407 10.3075 8.87698 7.17417
231.507 10.535 9.08578 7.2322
231.607 10.7641 9.30636 7.29008
231.707 10.9939 9.5387 7.34745
231.808 11.2233 9.78271 7.404
231.908 11.4516 10.0382 7.45947
232.008 11.6778 10.305 7.51366
232.108 11.9009 10.5826 7.56643
232.209 12.1201 10.8708 7.61774
232.309 12.3346 11.1688 7.66762
232.409 12.5435 11.4761 7.71617
232.509 12.746 11.7918 7.7636
232.609 12.9415 12.1152 7.81016
232.71 13.1292 12.4453 7.85617
232.81 13.3086 12.781 7.90198
232.91 13.479 13.121 7.94799
233.01 13.6401 13.4641 7.9946
233.111 13.7913 13.8089 8.04222
233.211 13.9323 14.1538 8.09122
233.311 14.0628 14.4974 8.14192
233.411 14.1826 14.838 8.19461
233.511 14.2916 15.1738 8.2495
233.612 14.3895 15.503 8.30669
233.712 14.4765 15.8239 8.36622
233.812 14.5525 16.1346 8.42801
233.912 14.6177 16.4332 8.49189
234.012 14.672 16.718 8.5576
234.113 14.7159 16.9872 8.62476
234.213 14.7494 17.239 8.69294
234.313 14.7728 17.4717 8.76162
234.413 14.7865 17.6839 8.83023
234.514 14.7909 17.874 8.89819
234.614 14.7862 18.0408 8.96487
234.714 14.773 18.183 9.02968
234.814 14.7515 18.2998 9.09202
234.914 14.7223 18.3902 9.15137
235.015 14.6858 18.4537 9.20727
235.115 14.6424 18.4899 9.25933
235.215 14.5927 18.4985 9.30728
235.315 14.5369 18.4796 9.35095
235.416 14.4756 18.4333 9.39027
235.516 14.4091 18.3603 9.42531
235.616 14.338 18.261 9.45625
235.716 14.2624 18.1363 9.48339
235.816 14.1829 17.9873 9.50711
235.917 14.0996 17.8151 9.52792
236.017 14.013 17.6211 9.54636
236.117 13.9231 17.4069 9.56307
236.217 13.8304 17.174 9.57868
236.318 13.7348 16.9241 9.59387
236.418 13.6367 16.659 9.6093
236.518 13.536 16.3806 9.62561
236.618 13.4329 16.0907 9.64336
236.718 13.3274 15.7912 9.66307
236.819 13.2196 15.4839 9.68517
236.919 13.1093 15.1707 9.70999
237.019 12.9967 14.8533 9.73775
237.119 12.8815 14.5335 9.76857
237.22 12.7639 14.2128 9.80245
237.32 12.6436 13.8927 9.83926
237.42 12.5207 13.5748 9.8788
237.52 12.3951 13.2601 9.92076
237.62 12.2667 12.95 9.96473
237.721 12.1355 12.6455 10.0103
237.821 12.0014 12.3474 10.0568
237.921 11.8645 12.0565 10.1039
238.021 11.7247 11.7736 10.151
238.121 11.5822 11.4992 10.1974
238.222 11.437 11.2336 10.2427
238.322 11.2893 10.9771 10.2863
238.422 11.1392 10.7301 10.3279
238.522 10.9869 10.4926 10.367
238.623 10.8327 10.2647 10.4034
238.723 10.6767 10.0463 10.4367
238.823 10.5194 9.8373 10.4669
238.923 10.3609 9.63755 10.4938
239.023 10.2017 9.44684 10.5174
239.124 10.0421 9.26491 10.5377
239.224 9.88236 9.09146 10.5549
239.324 9.72297 8.92619 10.5689
239.424 9.56425 8.76875 10.58
239.525 9.40654 8.61879 10.5883
239.625 9.25021 8.47594 10.5938
239.725 9.09555 8.33984 10.5967
239.825 8.94289 8.21012 10.597
239.925 8.79249 8.08641 10.5948
240.026 8.64459 7.96837 10.59
240.126 8.49941 7.85564 10.5825
240.226 8.35713 7.7479 10.5722
240.326 8.21787 7.64485 10.5588
240.427 8.08175 7.54621 10.5421
240.527 7.94883 7.45173 10.5218
240.627 7.81915 7.36119 10.4975
240.727 7.6927 7.2744 10.469
240.827 7.56946 7.19122 10.4358
240.928 7.44937 7.11156 10.3976
241.028 7.33236 7.03536 10.3541
241.128 7.21835 6.96262 10.3051
241.228 7.10722 6.89338 10.2504
241.328 6.99887 6.82775 10.1899
241.429 6.89318 6.76588 10.1236
241.529 6.79005 6.70798 10.0515
241.629 6.68936 6.65432 9.97398
241.729 6.59103 6.60521 9.89124
241.83 6.49498 6.56102 9.80376
241.93 6.40113 6.52216 9.71209
242.03 6.30943 6.48907 9.61687
242.13 6.21987 6.46226 9.51884
242.23 6.13243 6.44222 9.41881
242.331 6.04712 6.42949 9.31764
242.431 5.96398 6.42463 9.21622
242.531 5.88306 6.42818 9.11548
242.631 5.80442 6.44069 9.01631
242.732 5.72815 6.46267 8.91958
242.832 5.65434 6.49464 8.8261
242.932 5.5831 6.53705 8.73663
243.032 5.51453 6.59031 8.65182
243.132 5.44876 6.6548 8.57222
243.233 5.3859 6.73079 8.49828
243.333 5.32607 6.81852 8.43032
243.433 5.26938 6.91813 8.36852
243.533 5.21592 7.02966 8.31298
243.634 5.1658 7.15309 8.26365
243.734 5.11911 7.28828 8.22037
243.834 5.0759 7.435 8.18292
243.934 5.03625 7.59292 8.15097
244.034 5.0002 7.76162 8.12414
244.135 4.96778 7.94055 8.10201
244.235 4.93901 8.1291 8.08414
244.335 4.91389 8.32656 8.07009
244.435 4.89243 8.53212 8.05944
244.536 4.87459 8.7449 8.05182
244.636 4.86035 8.96393 8.04689
244.736 4.84968 9.1882 8.0444
244.836 4.84252 9.41662 8.04418
244.936 4.83882 9.64805 8.04615
245.037 4.83851 9.88132 8.05029
245.137 4.84155 10.1152 8.05671
245.237 4.84784 10.3485 8.06558
245.337 4.85733 10.58 8.07716
245.437 4.86994 10.8085 8.09177
245.538 4.88559 11.0326 8.10979
245.638 4.90421 11.2512 8.13161
245.738 4.92571 11.4632 8.15768
245.838 4.95003 11.6674 8.18841
245.939 4.97707 11.8628 8.22423
246.039 5.00677 12.0482 8.26551
246.139 5.03904 12.2228 8.31257
246.239 5.07381 12.3857 8.36568
246.339 5.11099 12.5361 8.42502
246.44 5.15052 12.6734 8.49068
246.54 5.1923 12.7968 8.56266
246.64 5.23627 12.906 8.64089
246.74 5.28235 13.0006 8.72518
246.841 5.33046 13.0803 8.81525
246.941 5.38052 13.1449 8.91078
247.041 5.43247 13.1945 9.01134
247.141 5.48622 13.2291 9.11647
247.241 5.54171 13.2489 9.22566
247.342 5.59887 13.2542 9.33838
247.442 5.65762 13.2454 9.4541
247.542 5.7179 13.2231 9.57227
247.642 5.77965 13.1879 9.69241
247.743 5.84278 13.1405 9.81404
247.843 5.90724 13.0815 9.93675
247.943 5.97295 13.012 10.0602
248.043 6.03983 12.9328 10.184
248.143 6.10781 12.8447 10.308
248.244 6.1768 12.7489 10.4321
248.344 6.24672 12.6462 10.5561
248.444 6.31745 12.5377 10.6799
248.544 6.38889 12.4243 10.8037
248.645 6.46091 12.307 10.9273
248.745 6.53339 12.1866 11.051
248.845 6.60616 12.0641 11.1747
248.945 6.67908 11.9403 11.2985
249.045 6.75196 11.8158 11.4224
249.146 6.82461 11.6915 11.5465
249.246 6.89682 11.5678 11.6707
249.346 6.96838 11.4452 11.7948
249.446 7.03905 11.3243 11.9188
249.546 7.10859 11.2053 12.0423
249.647 7.17674 11.0885 12.1651
249.747 7.24326 10.9741 12.2867
249.847 7.30787 10.8621 12.4067
249.947 7.37033 10.7527 12.5245
250.048 7.43038 10.6457 12.6397
250.148 7.48777 10.5412 12.7515
250.248 7.54226 10.4389 12.8595
250.348 7.59364 10.3387 12.9629
250.448 7.6417 10.2405 13.0611
250.549 7.68627 10.1441 13.1536
250.649 7.72719 10.0493 13.2398
250.749 7.76435 9.95582 13.3193
250.849 7.79764 9.86361 13.3917
250.95 7.82701 9.77248 13.4567
251.05 7.85243 9.68233 13.5142
251.15 7.87391 9.59307 13.564
251.25 7.8915 9.50465 13.6061
251.35 7.90526 9.41707 13.6407
251.451 7.91532 9.33035 13.668
251.551 7.92179 9.24458 13.6884
251.651 7.92486 9.15985 13.702
251.751 7.92471 9.07629 13.7095
251.852 7.92155 8.99408 13.7113
251.952 7.91561 8.91339 13.7079
252.052 7.90713 8.83442 13.6998
252.152 7.89637 8.75739 13.6875
252.252 7.88358 8.68249 13.6715
252.353 7.86901 8.60994 13.6521
252.453 7.85293 8.53993 13.6297
252.553 7.83559 8.47262 13.6046
252.653 7.81721 8.40819 13.577
252.754 7.79804 8.34676 13.547
252.854 7.77828 8.28842 13.5146
252.954 7.75814 8.23325 13.4796
253.054 7.73779 8.18128 13.4421
253.154 7.7174 8.13251 13.4017
253.255 7.69712 8.08691 13.3581
253.355 7.67708 8.04442 13.3112
253.455 7.65738 8.00495 13.2604
253.555 7.63812 7.96839 13.2056
253.655 7.61939 7.93462 13.1463
253.756 7.60124 7.90347 13.0824
253.856 7.58375 7.87481 13.0135
253.956 7.56695 7.84845 12.9396
254.056 7.55088 7.82424 12.8605
254.157 7.53558 7.80202 12.7764
254.257 7.52107 7.78163 12.6874
254.357 7.50738 7.76293 12.5936
254.457 7.49451 7.74578 12.4955
254.557 7.4825 7.73006 12.3936
254.658 7.47135 7.71567 12.2884
254.758 7.46108 7.70253 12.1805
254.858 7.45169 7.69055 12.0707
254.958 7.44319 7.6797 11.9597
255.059 7.43559 7.66991 11.8484
255.159 7.42888 7.66116 11.7375
255.259 7.42307 7.65342 11.6278
255.359 7.41814 7.64667 11.5201
255.459 7.41408 7.64089 11.4151
255.56 7.41087 7.63607 11.3133
255.66 7.40847 7.63218 11.2155
255.76 7.40686 7.62921 11.1219
255.86 7.40598 7.62711 11.0329
255.961 7.4058 7.62585 10.9487
256.061 7.40625 7.62538 10.8693
256.161 7.40728 7.62565 10.7948
256.261 7.40882 7.62659 10.7249
256.361 7.41081 7.62812 10.6594
256.462 7.41319 7.63017 10.5979
256.562 7.41587 7.63266 10.5401
256.662 7.41881 7.6355 10.4854
256.762 7.42194 7.63862 10.4333
256.863 7.42522 7.64193 10.3834
256.963 7.42859 7.64536 10.3351
257.063 7.43203 7.64886 10.2879
257.163 7.4355 7.65238 10.2415
257.263 7.43901 7.65588 10.1954
257.364 7.44254 7.65935 10.1493
257.464 7.44612 7.66278 10.1032
257.564 7.44976 7.66621 10.0568
257.664 7.45351 7.66967 10.0101
257.764 7.45741 7.67321 9.96337
257.865 7.46152 7.67692 9.91667
257.965 7.46589 7.68089 9.87032
258.065 7.47061 7.68523 9.82466
258.165 7.47574 7.69006 9.78011
258.266 7.48136 7.69551 9.73714
258.366 7.48754 7.70174 9.69623
258.466 7.49436 7.70888 9.65787
258.566 7.50188 7.71709 9.62257
258.666 7.51016 7.72653 9.59078
258.767 7.51927 7.73736 9.56294
258.867 7.52924 7.74975 9.53941
258.967 7.54012 7.76385 9.52051
259.067 7.55194 7.77983 9.50648
259.168 7.56472 7.79786 9.49747
259.268 7.57848 7.8181 9.49358
259.368 7.59325 7.84074 9.4948
259.468 7.60903 7.86596 9.50107
259.568 7.62586 7.89396 9.51228
259.669 7.64375 7.92496 9.52823
259.769 7.66273 7.95919 9.54871
259.869 7.68287 7.99691 9.57347
259.969 7.70421 8.03842 9.60226
260.07 7.72686 8.08403 9.63482
260.17 7.75093 8.13408 9.67091
260.27 7.77655 8.18897 9.71033
260.37 7.80391 8.24912 9.7529
260.47 7.83321 8.31499 9.79852
260.571 7.86471 8.38708 9.8471
260.671 7.89868 8.46591 9.89866
260.771 7.93545 8.55206 9.95323
260.871 7.97539 8.6461 10.0109
260.972 8.0189 8.74866 10.0719
261.072 8.0664 8.86037 10.1364
261.172 8.11838 8.98186 10.2045
261.272 8.17533 9.11376 10.2766
261.372 8.23777 9.25672 10.3528
261.473 8.30625 9.41134 10.4335
261.573 8.38133 9.5782 10.5187
261.673 8.46357 9.75786 10.6086
261.773 8.55354 9.95082 10.7034
261.873 8.6518 10.1575 10.803
261.974 8.75892 10.3784 10.9074
262.074 8.87541 10.6137 11.0164
262.174 9.00179 10.8636 11.1299
262.274 9.13854 11.1284 11.2475
262.375 9.28611 11.4081 11.3689
262.475 9.44487 11.7026 11.4936
262.575 9.6152 12.0118 11.6212
262.675 9.79738 12.3356 11.751
262.775 9.99167 12.6735 11.8827
262.876 10.1982 13.0252 12.0155
262.976 10.4172 13.3902 12.149
263.076 10.6486 13.7679 12.2828
263.176 10.8925 14.1576 12.4163
263.277 11.1488 14.5586 12.5492
263.377 11.4173 14.97 12.6813
263.477 11.6979 15.391 12.8125
263.577 11.9903 15.8207 12.9428
263.677 12.2941 16.2582 13.0723
263.778 12.6091 16.7023 13.2012
263.878 12.9347 17.1521 13.3301
263.978 13.2705 17.6065 13.4594
264.078 13.6159 18.0644 13.5898
264.179 13.9704 18.5248 13.722
264.279 14.3334 18.9866 13.8571
264.379 14.7041 19.4486 13.9958
264.479 15.0818 19.9099 14.1392
264.579 15.4659 20.3694 14.2882
264.68 15.8556 20.826 14.444
264.78 16.2501 21.2787 14.6074
264.88 16.6485 21.7266 14.7793
264.98 17.0501 22.1688 14.9607
265.081 17.4539 22.6043 15.1521
265.181 17.8592 23.0322 15.3543
265.281 18.265 23.4518 15.5676
265.381 18.6706 23.8623 15.7924
265.481 19.0749 24.263 16.0288
265.582 19.4772 24.6531 16.2768
265.682 19.8766 25.0322 16.5362
265.782 20.2722 25.3996 16.8066
265.882 20.6632 25.7549 17.0877
265.982 21.0488 26.0976 17.3786
266.083 21.4281 26.4274 17.6788
266.183 21.8003 26.7441 17.9873
266.283 22.1648 27.0473 18.3032
266.383 22.5207 27.337 18.6255
266.484 22.8675 27.6131 18.9532
266.584 23.2043 27.8756 19.2851
266.684 23.5307 28.1245 19.6203
266.784 23.846 28.36 19.9577
266.884 24.1497 28.5823 20.2963
266.985 24.4412 28.7917 20.6351
267.085 24.7202 28.9885 20.9731
267.185 24.9862 29.1729 21.3096
267.285 25.2388 29.3455 21.6437
267.386 25.4778 29.5067 21.9747
267.486 25.7029 29.657 22.3019
267.586 25.9139 29.7968 22.6247
267.686 26.1105 29.9267 22.9424
267.786 26.2928 30.0473 23.2546
267.887 26.4605 30.159 23.5607
267.987 26.6138 30.2624 23.8602
268.087 26.7526 30.3579 24.1526
268.187 26.877 30.4462 24.4374
268.288 26.987 30.5276 24.714
268.388 27.083 30.6025 24.9819
268.488 27.1649 30.6715 25.2406
268.588 27.2332 30.7348 25.4894
268.688 27.288 30.7929 25.7277
268.789 27.3297 30.8458 25.955
268.889 27.3586 30.894 26.1705
268.989 27.3751 30.9376 26.3736
269.089 27.3796 30.9768 26.5637
269.19 27.3725 31.0117 26.7401
269.29 27.3542 31.0422 26.9023
269.39 27.3253 31.0686 27.0496
269.49 27.2863 31.0908 27.1815
269.59 27.2375 31.1087 27.2977
269.691 27.1795 31.1223 27.3977
269.791 27.1128 31.1316 27.4812
269.891 27.038 31.1363 27.5482
269.991 26.9554 31.1364 27.5984
270.091 26.8656 31.1318 27.6318
270.192 26.769 31.1222 27.6486
270.292 26.6661 31.1075 27.649
270.392 26.5572 31.0875 27.6331
270.492 26.4427 31.0621 27.6012
270.593 26.323 31.031 27.5538
270.693 26.1983 30.994 27.4913
270.793 26.069 30.9509 27.4141
270.893 25.9351 30.9014 27.3227
270.993 25.797 30.8454 27.2174
271.094 25.6547 30.7827 27.0988
271.194 25.5083 30.7129 26.9672
271.294 25.3578 30.6358 26.8229
271.394 25.2033 30.5514 26.6663
271.495 25.0446 30.4592 26.4976
271.595 24.8819 30.3591 26.3169
271.695 24.7149 30.251 26.1245
271.795 24.5435 30.1345 25.9203
271.895 24.3678 30.0096 25.7044
271.996 24.1874 29.8762 25.4769
272.096 24.0025 29.734 25.2375
272.196 23.8127 29.5831 24.9864
272.296 23.6182 29.4233 24.7235
272.397 23.4188 29.2547 24.4489
272.497 23.2145 29.0773 24.1625
272.597 23.0054 28.8912 23.8646
272.697 22.7915 28.6965 23.5554
272.797 22.5731 28.4934 23.2352
272.898 22.3502 28.2821 22.9044
272.998 22.1232 28.0629 22.5636
273.098 21.8923 27.8361 22.2135
273.198 21.658 27.6021 21.8549
273.299 21.4206 27.3614 21.4887
273.399 21.1808 27.1142 21.116
273.499 20.9389 26.8612 20.738
273.599 20.6956 26.6028 20.3558
273.699 20.4515 26.3395 19.9709
273.8 20.2073 26.0718 19.5845
273.9 19.9636 25.8004 19.1981
274 19.7212 25.5256 18.813
274.1 19.4807 25.2479 18.4306
274.2 19.2429 24.968 18.0522
274.301 19.0083 24.6861 17.6791
274.401 18.7777 24.4028 17.3123
274.501 18.5516 24.1183 16.953
274.601 18.3306 23.8331 16.6019
274.702 18.1153 23.5473 16.2599
274.802 17.906 23.2613 15.9274
274.902 17.7033 22.9751 15.6051
275.002 17.5074 22.6889 15.2932
275.102 17.3186 22.4029 14.9918
275.203 17.1372 22.1169 14.7009
275.303 16.9631 21.8311 14.4205
275.403 16.7966 21.5453 14.1503
275.503 16.6376 21.2596 13.8901
275.604 16.486 20.9738 13.6395
275.704 16.3418 20.6879 13.3981
275.804 16.2048 20.4018 13.1655
275.904 16.0748 20.1153 12.9414
276.004 15.9515 19.8285 12.7253
276.105 15.8348 19.5413 12.5169
276.205 15.7242 19.2537 12.316
276.305 15.6196 18.9657 12.1223
276.405 15.5206 18.6774 11.9357
276.506 15.4269 18.3889 11.7562
276.606 15.3382 18.1004 11.5838
276.706 15.2543 17.812 11.4185
276.806 15.1748 17.5241 11.2607
276.906 15.0996 17.2369 11.1104
277.007 15.0283 16.9509 10.968
277.107 14.9608 16.6663 10.8337
277.207 14.8969 16.3837 10.7078
277.307 14.8365 16.1034 10.5905
277.408 14.7793 15.8261 10.482
277.508 14.7253 15.5522 10.3825
277.608 14.6743 15.2821 10.2921
277.708 14.6262 15.0166 10.2106
277.808 14.581 14.756 10.138
277.909 14.5384 14.5009 10.0741
278.009 14.4986 14.2518 10.0184
278.109 14.4612 14.0091 9.97036
278.209 14.4263 13.7734 9.92949
278.309 14.3936 13.545 9.89501
278.41 14.3631 13.3242 9.86609
278.51 14.3346 13.1115 9.84183
278.61 14.3079 12.9071 9.82125
278.71 14.2828 12.7112 9.80334
278.811 14.2591 12.5241 9.78704
278.911 14.2366 12.3458 9.77131
279.011 14.2149 12.1766 9.75513
279.111 14.1938 12.0164 9.73754
279.211 14.173 11.8654 9.71762
279.312 14.1522 11.7233 9.69455
279.412 14.131 11.5903 9.66761
279.512 14.1091 11.4661 9.6362
279.612 14.0862 11.3507 9.59984
279.713 14.062 11.2439 9.55817
279.813 14.0361 11.1454 9.51099
279.913 14.0081 11.0551 9.4582
280.013 13.9779 10.9727 9.39984
280.113 13.945 10.8979 9.33605
280.214 13.9094 10.8304 9.26708
280.314 13.8706 10.77 9.19328
280.414 13.8286 10.7162 9.11504
280.514 13.7832 10.6687 9.03284
280.615 13.7343 10.6273 8.94716
280.715 13.6817 10.5915 8.85852
280.815 13.6255 10.5609 8.76744
280.915 13.5657 10.5352 8.67443
281.015 13.5023 10.5139 8.57997
281.116 13.4355 10.4969 8.4845
281.216 13.3653 10.4835 8.38843
281.316 13.2921 10.4736 8.29211
281.416 13.216 10.4668 8.19586
281.517 13.1374 10.4627 8.09993
281.617 13.0566 10.461 8.00455
281.717 12.974 10.4615 7.90989
281.817 12.89 10.4638 7.81612
281.917 12.8051 10.4679 7.72336
282.018 12.7197 10.4734 7.63175
282.118 12.6344 10.4803 7.54141
282.218 12.5497 10.4883 7.45247
282.318 12.4662 10.4975 7.36511
282.418 12.3845 10.5079 7.27949
282.519 12.3051 10.5193 7.19583
282.619 12.2286 10.5318 7.11439
282.719 12.1556 10.5456 7.03544
282.819 12.0867 10.5607 6.9593
282.92 12.0224 10.5773 6.88631
283.02 11.9632 10.5956 6.81682
283.12 11.9098 10.6157 6.7512
283.22 11.8624 10.6378 6.68981
283.32 11.8216 10.6622 6.63299
283.421 11.7878 10.6892 6.58105
283.521 11.7612 10.7189 6.53426
283.621 11.7422 10.7515 6.49281
283.721 11.7309 10.7874 6.45683
283.822 11.7274 10.8267 6.42637
283.922 11.732 10.8696 6.40136
284.022 11.7445 10.9162 6.38164
284.122 11.7649 10.9668 6.36696
284.222 11.793 11.0214 6.35694
284.323 11.8287 11.0801 6.35111
284.423 11.8715 11.143 6.3489
284.523 11.9212 11.2101 6.34965
284.623 11.9774 11.2814 6.35264
284.724 12.0394 11.3569 6.3571
284.824 12.1067 11.4365 6.3622
284.924 12.1787 11.5202 6.36711
285.024 12.2548 11.6077 6.37102
285.124 12.3341 11.6991 6.37313
285.225 12.4159 11.7942 6.37269
285.325 12.4994 11.8928 6.36904
285.425 12.5837 11.9948 6.36158
285.525 12.6681 12.1001 6.34984
285.626 12.7516 12.2084 6.33347
285.726 12.8334 12.3195 6.31222
285.826 12.9127 12.4335 6.286
285.926 12.9885 12.5499 6.25484
286.026 13.0601 12.6688 6.21891
286.127 13.1266 12.7899 6.17851
286.227 13.1874 12.9131 6.13403
286.327 13.2416 13.0382 6.08598
286.427 13.2886 13.1649 6.03496
286.527 13.3277 13.2932 5.98162
286.628 13.3585 13.4228 5.92666
286.728 13.3804 13.5535 5.87081
286.828 13.3929 13.685 5.8148
286.928 13.3957 13.8172 5.75935
287.029 13.3885 13.9496 5.70512
287.129 13.371 14.0821 5.65276
287.229 13.3432 14.2142 5.60282
287.329 13.3049 14.3456 5.55579
287.429 13.2561 14.4758 5.51209
287.53 13.1969 14.6045 5.47203
287.63 13.1274 14.7312 5.43585
287.73 13.0479 14.8554 5.40372
287.83 12.9587 14.9765 5.37573
287.931 12.86 15.0941 5.35191
288.031 12.7524 15.2075 5.33224
288.131 12.6362 15.3162 5.31668
288.231 12.512 15.4197 5.30517
288.331 12.3805 15.5173 5.29765
288.432 12.2421 15.6086 5.29408
288.532 12.0975 15.6928 5.29446
288.632 11.9475 15.7696 5.29882
288.732 11.7926 15.8385 5.30727
288.833 11.6338 15.8988 5.31999
288.933 11.4716 15.9503 5.3372
289.033 11.3068 15.9926 5.35923
289.133 11.1401 16.0254 5.38646
289.233 10.9723 16.0484 5.41934
289.334 10.8041 16.0615 5.45838
289.434 10.636 16.0645 5.50413
289.534 10.4687 16.0575 5.55716
289.634 10.3029 16.0404 5.61804
289.735 10.1391 16.0135 5.68735
289.835 9.97772 15.9769 5.76561
289.935 9.81929 15.931 5.85331
290.035 9.66417 15.8763 5.95084
290.135 9.5127 15.8131 6.05851
290.236 9.36517 15.742 6.17651
290.336 9.22178 15.6638 6.30491
290.436 9.0827 15.5791 6.44364
290.536 8.94804 15.4888 6.59248
290.636 8.81783 15.3937 6.75106
290.737 8.69208 15.2949 6.91889
290.837 8.57075 15.1932 7.0953
290.937 8.45372 15.0899 7.2795
291.037 8.34089 14.986 7.47058
291.138 8.23208 14.8825 7.66753
291.238 8.12711 14.7808 7.86925
291.338 8.02578 14.6819 8.07457
291.438 7.92785 14.587 8.28227
291.538 7.83311 14.4972 8.49112
291.639 7.74132 14.4137 8.69989
291.739 7.65225 14.3376 8.90736
291.839 7.56568 14.2698 9.11236
291.939 7.48139 14.2113 9.31377
292.04 7.39919 14.1629 9.51056
292.14 7.3189 14.1254 9.70179
292.24 7.24036 14.0994 9.88658
292.34 7.16342 14.0853 10.0642
292.44 7.08796 14.0836 10.234
292.541 7.01389 14.0943 10.3954
292.641 6.94112 14.1176 10.5479
292.741 6.8696 14.1532 10.6912
292.841 6.79927 14.2008 10.825
292.942 6.7301 14.2599 10.9491
293.042 6.66208 14.3297 11.0633
293.142 6.59518 14.4095 11.1674
293.242 6.52942 14.498 11.2614
293.342 6.46478 14.594 11.3451
293.443 6.40126 14.6962 11.4186
293.543 6.33886 14.803 11.4817
293.643 6.27759 14.9127 11.5344
293.743 6.21742 15.0236 11.5766
293.844 6.15836 15.1338 11.6081
293.944 6.10038 15.2413 11.629
294.044 6.04347 15.3442 11.639
294.144 5.98761 15.4405 11.6381
294.244 5.93278 15.5283 11.6263
294.345 5.87896 15.6057 11.6035
294.445 5.82612 15.6708 11.5696
294.545 5.77428 15.7219 11.5249
294.645 5.72342 15.7574 11.4694
294.745 5.67357 15.7759 11.4033
294.846 5.62475 15.776 11.3269
294.946 5.57703 15.7568 11.2407
295.046 5.53047 15.7173 11.1452
295.146 5.48519 15.6569 11.0409
295.247 5.4413 15.5753 10.9288
295.347 5.39898 15.4722 10.8095
295.447 5.35841 15.3478 10.6841
295.547 5.31981 15.2024 10.5536
295.647 5.28343 15.0366 10.4191
295.748 5.24956 14.8512 10.2818
295.848 5.21851 14.6472 10.143
295.948 5.1906 14.426 10.0038
296.048 5.1662 14.1888 9.86553
296.149 5.14568 13.9374 9.72937
296.249 5.12943 13.6735 9.59649
296.349 5.11784 13.3989 9.468
296.449 5.11131 13.1156 9.34491
296.549 5.11026 12.8257 9.22813
296.65 5.11506 12.5312 9.11846
296.75 5.12609 12.2342 9.01657
296.85 5.14373 11.9369 8.923
296.95 5.1683 11.6413 8.83814
297.051 5.20012 11.3495 8.76227
297.151 5.23946 11.0633 8.69554
297.251 5.28657 10.7846 8.63796
297.351 5.34165 10.5151 8.58946
297.451 5.40486 10.2566 8.54986
297.552 5.4763 10.0103 8.51894
297.652 5.55605 9.77776 8.49639
297.752 5.64412 9.56003 8.48191
297.852 5.74047 9.35815 8.47516
297.953 5.84503 9.17297 8.47583
298.053 5.95767 9.00517 8.48363
298.153 6.07822 8.85529 8.49833
298.253 6.20644 8.72368 8.51973
298.353 6.34209 8.61055 8.54775
298.454 6.48485 8.51597 8.58235
298.554 6.63437 8.43985 8.6236
298.654 6.79029 8.38196 8.67166
298.754 6.95218 8.34198 8.72675
298.854 7.11961 8.31943 8.7892
298.955 7.2921 8.31376 8.85939
299.055 7.46916 8.3243 8.93775
299.155 7.65028 8.35029 9.02479
299.255 7.83491 8.39091 9.12102
299.356 8.0225 8.44526 9.22696
299.456 8.2125 8.51238 9.34315
299.556 8.40431 8.59128 9.4701
299.656 8.59735 8.6809 9.60829
299.756 8.79102 8.78017 9.75816
299.857 8.98473 8.888 9.92007
299.957 9.17786 9.00328 10.0943
300.057 9.36981 9.12488 10.2812
300.157 9.55995 9.25169 10.4809
300.258 9.7477 9.38261 10.6934
300.358 9.93242 9.51652 10.9189
300.458 10.1135 9.65238 11.1572
300.558 10.2904 9.78911 11.4082
300.658 10.4625 9.92573 11.6719
300.759 10.6292 10.0612 11.9479
300.859 10.7899 10.1947 12.2362
300.959 10.9441 10.3252 12.5364
301.059 11.0913 10.452 12.8482
301.16 11.2308 10.5742 13.1715
301.26 11.3622 10.6911 13.5059
301.36 11.4851 10.802 13.8511
301.46 11.5989 10.9063 14.2068
301.56 11.7031 11.0034 14.5728
301.661 11.7975 11.0929 14.9488
301.761 11.8816 11.1742 15.3344
301.861 11.955 11.247 15.7293
301.961 12.0175 11.311 16.1331
302.062 12.0687 11.3658 16.5453
302.162 12.1085 11.4112 16.9654
302.262 12.1366 11.4471 17.3927
302.362 12.1529 11.4733 17.8266
302.462 12.1573 11.4897 18.2661
302.563 12.1497 11.4963 18.7102
302.663 12.1302 11.4931 19.1578
302.763 12.0989 11.4801 19.6075
302.863 12.0557 11.4575 20.0579
302.963 12.0009 11.4253 20.5073
303.064 11.9347 11.3837 20.9538
303.164 11.8575 11.333 21.3955
303.264 11.7694 11.2733 21.8302
303.364 11.6711 11.205 22.2559
303.465 11.5628 11.1284 22.67
303.565 11.4451 11.0438 23.0702
303.665 11.3186 10.9517 23.4541
303.765 11.1839 10.8525 23.8193
303.865 11.0417 10.7465 24.1633
303.966 10.8926 10.6345 24.4838
304.066 10.7374 10.5168 24.7786
304.166 10.577 10.394 25.0457
304.266 10.4121 10.2668 25.283
304.367 10.2435 10.1357 25.4889
304.467 10.0721 10.0014 25.6619
304.567 9.89882 9.86455 25.8007
304.667 9.72442 9.72576 25.9046
304.767 9.54979 9.58571 25.9727
304.868 9.37577 9.44504 26.0048
304.968 9.20315 9.3044 26.0007
305.068 9.03273 9.1644 25.9607
305.168 8.86524 9.02562 25.8853
305.269 8.70137 8.88863 25.7752
305.369 8.54177 8.75393 25.6315
305.469 8.38701 8.62199 25.4555
305.569 8.2376 8.49322 25.2484
305.669 8.09399 8.36797 25.0121
305.77 7.95654 8.24653 24.7481
305.87 7.82555 8.1291 24.4584
305.97 7.70123 8.01585 24.145
306.07 7.58372 7.90685 23.8098
306.171 7.47307 7.80212 23.4549
306.271 7.36926 7.70158 23.0823
306.371 7.2722 7.60513 22.6941
306.471 7.18174 7.51258 22.2923
306.571 7.09763 7.4237 21.8788
306.672 7.01961 7.33821 21.4556
306.772 6.94733 7.25578 21.0245
306.872 6.88042 7.17607 20.5872
306.972 6.81844 7.09871 20.1456
307.072 6.76097 7.02329 19.7013
307.173 6.70752 6.94944 19.2558
307.273 6.65761 6.87677 18.8108
307.373 6.61076 6.80489 18.3676
307.473 6.56648 6.73345 17.9279
307.574 6.5243 6.66213 17.4929
307.674 6.48375 6.59063 17.064
307.774 6.44439 6.51868 16.6425
307.874 6.40582 6.44608 16.2298
307.974 6.36765 6.37265 15.827
308.075 6.32953 6.29825 15.4353
308.175 6.29116 6.22281 15.0558
308.275 6.25227 6.14628 14.6895
308.375 6.21262 6.06866 14.3374
308.476 6.17203 5.99 14.0004
308.576 6.13034 5.91036 13.6792
308.676 6.08744 5.82985 13.3745
308.776 6.04325 5.74858 13.0867
308.876 5.99772 5.66672 12.8161
308.977 5.95084 5.5844 12.5629
309.077 5.90263 5.50181 12.3272
309.177 5.85312 5.41912 12.1088
309.277 5.80236 5.33649 11.9073
309.378 5.75043 5.25409 11.7222
309.478 5.69743 5.17208 11.5528
309.578 5.64345 5.0906 11.3983
309.678 5.5886 5.0098 11.2576
309.778 5.53299 4.9298 11.1297
309.879 5.47675 4.85069 11.0132
309.979 5.41998 4.77259 10.9069
310.079 5.36282 4.69556 10.8093
310.179 5.30537 4.6197 10.719
310.279 5.24775 4.54505 10.6346
310.38 5.19007 4.47167 10.5546
310.48 5.13242 4.39962 10.4777
310.58 5.07492 4.32893 10.4025
310.68 5.01766 4.25967 10.3277
310.781 4.96071 4.19186 10.2524
310.881 4.90417 4.12557 10.1755
310.981 4.8481 4.06083 10.0961
311.081 4.79259 3.9977 10.0137
311.181 4.73769 3.93623 9.92751
311.282 4.68347 3.87648 9.83733
311.382 4.62998 3.8185 9.74287
311.482 4.57728 3.76235 9.64406
311.582 4.52542 3.70807 9.54095
311.683 4.47443 3.65573 9.43371
311.783 4.42439 3.60535 9.32262
311.883 4.37533 3.55699 9.20804
311.983 4.32732 3.51066 9.0904
312.083 4.28041 3.4664 8.97018
312.184 4.23467 3.42422 8.84789
312.284 4.19019 3.38413 8.72405
312.384 4.14708 3.34612 8.59921
312.484 4.10544 3.31021 8.47386
312.585 4.06543 3.27639 8.34852
312.685 4.02721 3.24466 8.22365
312.785 3.991 3.21505 8.09967
312.885 3.95703 3.18759 7.97702
312.985 3.92558 3.16233 7.85605
313.086 3.897 3.13934 7.73713
313.186 3.87166 3.11875 7.62059
313.286 3.85 3.10071 7.50678
313.386 3.8325 3.08544 7.39603
313.487 3.81971 3.07318 7.28869
313.587 3.81224 3.06427 7.18514
313.687 3.81075 3.05909 7.0858
313.787 3.81595 3.05808 6.99111
313.887 3.82862 3.06177 6.90159
313.988 3.84957 3.07074 6.8178
314.088 3.87967 3.08566 6.74034
314.188 3.91979 3.10722 6.66987
314.288 3.97086 3.1362 6.6071
314.388 4.03381 3.17343 6.55278
314.489 4.10957 3.21975 6.50765
314.589 4.19904 3.27605 6.47249
314.689 4.30313 3.34323 6.44805
314.789 4.42267 3.42217 6.43507
314.89 4.55846 3.51375 6.43422
314.99 4.71118 3.61879 6.44611
315.09 4.88147 3.73809 6.47125
315.19 5.06983 3.87235 6.51004
315.29 5.27663 4.02218 6.56275
315.391 5.5021 4.18809 6.62952
315.491 5.74633 4.37046 6.71031
315.591 6.00921 4.56952 6.80492
315.691 6.29049 4.78536 6.91301
315.792 6.58969 5.01787 7.03403
315.892 6.90615 5.26679 7.16729
315.992 7.23902 5.53166 7.31194
316.092 7.58722 5.81182 7.467
316.192 7.94949 6.10642 7.63135
316.293 8.32436 6.41441 7.80377
316.393 8.71018 6.73456 7.98297
316.493 9.10511 7.06543 8.16761
316.593 9.50714 7.40542 8.35632
316.694 9.91411 7.75276 8.54773
316.794 10.3237 8.10553 8.74051
316.894 10.7336 8.46168 8.93338
316.994 11.1412 8.81903 9.12517
317.094 11.5439 9.17533 9.31477
317.195 11.9393 9.52824 9.50124
317.295 12.3245 9.87538 9.68376
317.395 12.6971 10.2144 9.86166
317.495 13.0544 10.5428 10.0345
317.596 13.3941 10.8584 10.2018
317.696 13.7135 11.1587 10.3635
317.796 14.0106 11.4416 10.5195
317.896 14.2832 11.7051 10.6701
317.996 14.5293 11.9471 10.8153
318.097 14.7472 12.1658 10.9557
318.197 14.9354 12.3596 11.0917
318.297 15.0926 12.5271 11.2239
318.397 15.2178 12.6671 11.3528
318.497 15.3102 12.7786 11.4793
318.598 15.3694 12.8609 11.6039
318.698 15.3953 12.9136 11.7275
318.798 15.3877 12.9364 11.8506
318.898 15.3473 12.9293 11.974
318.999 15.2745 12.8928 12.0984
319.099 15.1705 12.8273 12.2242
319.199 15.0363 12.7338 12.3522
319.299 14.8735 12.6133 12.4828
319.399 14.6837 12.4672 12.6165
319.5 14.4688 12.297 12.7536
319.6 14.231 12.1046 12.8945
319.7 13.9724 11.8917 13.0396
319.8 13.6956 11.6607 13.1891
319.901 13.4031 11.4136 13.3432
320.001 13.0975 11.153 13.5022
320.101 12.7814 10.8812 13.6662
320.201 12.4575 10.6007 13.8353
320.301 12.1287 10.3141 14.0098
320.402 11.7975 10.0239 14.1898
320.502 11.4665 9.73266 14.3752
320.602 11.1383 9.4427 14.5663
320.702 10.8153 9.1564 14.763
320.803 10.4997 8.87596 14.9652
320.903 10.1937 8.60344 15.173
321.003 9.89922 8.34074 15.3862
321.103 9.61791 8.08955 15.6046
321.203 9.35133 7.85135 15.8279
321.304 9.10075 7.6274 16.0557
321.404 8.86724 7.41873 16.2875
321.504 8.65162 7.2261 16.5227
321.604 8.45446 7.05006 16.7605
321.705 8.27612 6.89088 17.0002
321.805 8.11669 6.7486 17.2408
321.905 7.97609 6.62303 17.4811
322.005 7.85398 6.51374 17.72
322.105 7.74986 6.42011 17.9561
322.206 7.66304 6.34133 18.1882
322.306 7.59265 6.27642 18.4147
322.406 7.53773 6.22427 18.6343
322.506 7.49715 6.18363 18.8453
322.606 7.46974 6.1532 19.0464
322.707 7.45423 6.1316 19.2359
322.807 7.44933 6.11742 19.4127
322.907 7.45372 6.10926 19.5753
323.007 7.46611 6.10575 19.7225
323.108 7.48523 6.10559 19.8534
323.208 7.50987 6.10755 19.9669
323.308 7.53892 6.1105 20.0625
323.408 7.57134 6.11345 20.1395
323.508 7.60622 6.11557 20.1977
323.609 7.64279 6.11617 20.2369
323.709 7.68042 6.11473 20.2572
323.809 7.71862 6.11093 20.2589
323.909 7.75707 6.10461 20.2424
324.01 7.79562 6.09582 20.2085
324.11 7.83427 6.08476 20.1578
324.21 7.87319 6.07181 20.0913
324.31 7.91268 6.05751 20.0101
324.41 7.95322 6.04255 19.9154
324.511 7.9954 6.02774 19.8082
324.611 8.03994 6.01401 19.6899
324.711 8.08764 6.00237 19.5618
324.811 8.1394 5.99388 19.425
324.912 8.1962 5.98967 19.2807
325.012 8.25904 5.99087 19.1302
325.112 8.32893 5.99861 18.9744
325.212 8.40691 6.01397 18.8145
325.312 8.49396 6.038 18.6512
325.413 8.59104 6.07166 18.4856
325.513 8.699 6.11582 18.3182
325.613 8.81865 6.17121 18.1499
325.713 8.95062 6.23845 17.9811
325.814 9.09546 6.318 17.8123
325.914 9.25354 6.41017 17.6442
326.014 9.42508 6.51508 17.4769
326.114 9.61009 6.6327 17.311
326.214 9.80843 6.76279 17.1468
326.315 10.0197 6.90495 16.9847
326.415 10.2434 7.05859 16.8251
326.515 10.4788 7.22294 16.6682
326.615 10.7248 7.39706 16.5147
326.715 10.9804 7.57986 16.3647
326.816 11.2441 7.77007 16.2189
326.916 11.5144 7.96633 16.0777
327.016 11.7896 8.16711 15.9416
327.116 12.0679 8.37079 15.811
327.217 12.3472 8.57568 15.6864
327.317 12.6254 8.77999 15.5683
327.417 12.9004 8.98191 15.4571
327.517 13.1699 9.17958 15.3531
327.617 13.4316 9.37116 15.2566
327.718 13.6831 9.55478 15.1677
327.818 13.9222 9.72867 15.0865
327.918 14.1466 9.89106 15.0129
328.018 14.354 10.0403 14.9466
328.119 14.5424 10.1748 14.8875
328.219 14.7099 10.2932 14.8348
328.319 14.8546 10.3941 14.788
328.419 14.9748 10.4764 14.7463
328.519 15.0691 10.5391 14.7087
328.62 15.1362 10.5814 14.6743
328.72 15.1753 10.6027 14.6417
328.82 15.1854 10.6027 14.61
328.92 15.1661 10.581 14.5776
329.021 15.1172 10.5378 14.5435
329.121 15.0386 10.4733 14.5061
329.221 14.9307 10.3878 14.4644
329.321 14.7941 10.2821 14.4169
329.421 14.6296 10.157 14.3627
329.522 14.4381 10.0135 14.3008
329.622 14.2212 9.85287 14.2301
329.722 13.9802 9.67634 14.1501
329.822 13.7169 9.48546 14.0601
329.923 13.4331 9.28182 13.9597
330.023 13.131 9.0671 13.8488
330.123 12.8127 8.84308 13.7274
330.223 12.4803 8.61156 13.5956
330.323 12.1364 8.37436 13.4538
330.424 11.7832 8.13331 13.3024
330.524 11.423 7.89019 13.1421
330.624 11.0583 7.64674 12.9736
330.724 10.6913 7.40461 12.7978
330.824 10.3243 7.16537 12.6156
330.925 9.95927 6.93044 12.428
331.025 9.59827 6.70113 12.2359
331.125 9.24314 6.47859 12.0402
331.225 8.89555 6.26382 11.842
331.326 8.55698 6.05764 11.6421
331.426 8.22876 5.8607 11.4413
331.526 7.91198 5.67346 11.2404
331.626 7.60755 5.49623 11.0399
331.726 7.31618 5.32913 10.8404
331.827 7.03837 5.17213 10.6423
331.927 6.77443 5.02504 10.4459
332.027 6.52447 4.88752 10.2515
332.127 6.28845 4.75913 10.0591
332.228 6.06612 4.63931 9.86883
332.328 5.85713 4.5274 9.68063
332.428 5.66097 4.42268 9.49441
332.528 5.47702 4.32437 9.31005
332.628 5.30456 4.23166 9.12742
332.729 5.14279 4.14372 8.94635
332.829 4.99088 4.05973 8.76669
332.929 4.84792 3.97889 8.58832
333.029 4.713 3.90041 8.41113
333.13 4.58522 3.8236 8.23505
333.23 4.46366 3.74777 8.06005
333.33 4.34746 3.67234 7.88614
333.43 4.23578 3.59679 7.71337
333.53 4.12784 3.52069 7.54182
333.631 4.02292 3.44368 7.37161
333.731 3.92037 3.36551 7.20288
333.831 3.81961 3.28598 7.03578
333.931 3.72015 3.205 6.87046
334.032 3.62156 3.12254 6.70707
334.132 3.52351 3.03864 6.54574
334.232 3.42573 2.9534 6.38657
334.332 3.32804 2.867 6.22961
334.432 3.23034 2.77962 6.07489
334.533 3.13256 2.69152 5.92238
334.633 3.03474 2.60297 5.772
334.733 2.93693 2.51426 5.62363
334.833 2.83925 2.42568 5.4771
334.933 2.74187 2.33756 5.3322
335.034 2.64496 2.25019 5.1887
335.134 2.54874 2.16386 5.04633
335.234 2.45345 2.07888 4.90484
335.334 2.35933 1.9955 4.76397
335.435 2.26663 1.91397 4.62347
335.535 2.17561 1.83452 4.48316
335.635 2.0865 1.75735 4.34287
335.735 1.99957 1.68264 4.20252
335.835 1.91501 1.61054 4.06208
335.936 1.83306 1.5412 3.9216
336.036 1.75389 1.47471 3.78123
336.136 1.67768 1.41117 3.64119
336.236 1.60459 1.35065 3.5018
336.337 1.53472 1.29319 3.36343
336.437 1.46819 1.23883 3.22655
336.537 1.40507 1.18759 3.09168
336.637 1.34542 1.13946 2.95939
336.737 1.28927 1.09445 2.83027
336.838 1.23661 1.05252 2.70495
336.938 1.18744 1.01363 2.58401
337.038 1.14171 0.977732 2.46806
337.138 1.09938 0.944766 2.35761
337.239 1.06035 0.914652 2.25315
337.339 1.02455 0.887303 2.15507
337.439 0.991844 0.862617 2.06366
337.539 0.962126 0.840482 1.97914
337.639 0.935252 0.820773 1.90158
337.74 0.911076 0.803357 1.83095
337.84 0.889441 0.78809 1.76711
337.94 0.870187 0.77482 1.70979
338.04 0.853147 0.763391 1.65864
338.141 0.838153 0.75364 1.61319
338.241 0.82504 0.745405 1.5729
338.341 0.813641 0.738525 1.53718
338.441 0.8038 0.73284 1.50537
338.541 0.795364 0.7282 1.47681
338.642 0.788193 0.724463 1.45083
338.742 0.782155 0.721498 1.42677
338.842 0.777134 0.719192 1.40402
338.942 0.773028 0.717446 1.38202
339.042 0.769751 0.716181 1.36029
339.143 0.767234 0.715339 1.33844
339.243 0.765424 0.714881 1.31616
339.343 0.764287 0.71479 1.29326
339.443 0.763806 0.715072 1.26965
339.544 0.763981 0.715749 1.24534
339.644 0.764827 0.716863 1.22045
339.744 0.766374 0.718473 1.19516
339.844 0.768664 0.720648 1.16977
339.944 0.771749 0.723469 1.14462
340.045 0.775691 0.727021 1.12007
340.145 0.780555 0.731394 1.09655
340.245 0.786412 0.736673 1.07446
340.345 0.793329 0.74294 1.0542
340.446 0.801376 0.750267 1.03615
340.546 0.810613 0.758712 1.02061
340.646 0.821095 0.768317 1.00783
340.746 0.832864 0.779107 0.998002
340.846 0.845953 0.791082 0.991196
340.947 0.860379 0.804225 0.987411
341.047 0.876142 0.818493 0.986549
341.147 0.893227 0.833819 0.988417
341.247 0.911601 0.850117 0.99274
341.348 0.931211 0.867278 0.999165
341.448 0.95199 0.885175 1.00727
341.548 0.97385 0.903663 1.0166
341.648 0.996687 0.922588 1.02665
341.748 1.02038 0.941782 1.03691
341.849 1.0448 0.961072 1.04688
341.949 1.0698 0.980285 1.05606
342.049 1.09522 0.999248 1.06402
342.149 1.1209 1.01779 1.07037
342.25 1.14667 1.03576 1.07481
342.35 1.17235 1.053 1.07709
342.45 1.19776 1.06937 1.07708
342.55 1.22272 1.08477 1.07472
342.65 1.24707 1.09909 1.07007
342.751 1.27063 1.11224 1.06325
342.851 1.29322 1.12415 1.05449
342.951 1.3147 1.1348 1.04409
343.051 1.33491 1.14413 1.03239
343.151 1.35371 1.15213 1.0198
343.252 1.37096 1.15881 1.00675
343.352 1.38655 1.16418 0.993674
343.452 1.40037 1.16825 0.981009
343.552 1.41232 1.17105 0.96916
343.653 1.42232 1.17261 0.958492
343.753 1.43029 1.17298 0.94931
343.853 1.43619 1.17217 0.941853
343.953 1.43995 1.17024 0.936277
344.053 1.44157 1.16721 0.932655
344.154 1.44101 1.16312 0.930969
344.254 1.43828 1.158 0.931115
344.354 1.43339 1.15187 0.932906
344.454 1.42637 1.14476 0.936078
344.555 1.41725 1.1367 0.940304
344.655 1.4061 1.12771 0.945208
344.755 1.39299 1.11782 0.950375
344.855 1.378 1.10707 0.955376
344.955 1.36125 1.0955 0.959782
345.056 1.34284 1.08316 0.963179
345.156 1.32292 1.0701 0.965192
345.256 1.30162 1.0564 0.965496
345.356 1.27912 1.04215 0.96383
345.457 1.25558 1.02743 0.960013
345.557 1.2312 1.01236 0.953944
345.657 1.20616 0.997068 0.945614
345.757 1.18068 0.981689 0.935104
345.857 1.15496 0.966372 0.922582
345.958 1.12923 0.951274 0.9083
346.058 1.10369 0.93656 0.892579
346.158 1.07857 0.922399 0.875805
346.258 1.05407 0.908959 0.858404
346.359 1.03042 0.896407 0.840835
346.459 1.0078 0.884902 0.823566
346.559 0.98641 0.874593 0.807056
346.659 0.966424 0.865616 0.791742
346.759 0.948003 0.85809 0.778015
346.86 0.931288 0.852112 0.766208
346.96 0.916402 0.847759 0.756584
347.06 0.903448 0.845083 0.749323
347.16 0.892504 0.84411 0.744515
347.26 0.883627 0.844841 0.742158
347.361 0.87685 0.847248 0.742157
347.461 0.872184 0.851282 0.744325
347.561 0.869614 0.856865 0.748398
347.661 0.869106 0.863902 0.754034
347.762 0.870603 0.872275 0.760839
347.862 0.874029 0.881853 0.76837
347.962 0.879291 0.89249 0.776164
348.062 0.886277 0.904032 0.783748
348.162 0.894865 0.91632 0.790661
348.263 0.904919 0.929192 0.796471
348.363 0.916293 0.942489 0.800796
348.463 0.928834 0.956059 0.803312
348.563 0.942384 0.969756 0.803773
348.664 0.956782 0.983445 0.802016
348.764 0.971864 0.997004 0.797969
348.864 0.987467 1.01033 0.791655
348.964 1.00343 1.02332 0.783189
349.064 1.01959 1.0359 0.772773
349.165 1.0358 1.04801 0.760693
349.265 1.0519 1.05959 0.747301
349.365 1.06775 1.0706 0.733004
349.465 1.0832 1.08102 0.71825
349.566 1.09812 1.09081 0.703506
349.666 1.11239 1.09997 0.689242
349.766 1.12587 1.10847 0.675913
349.866 1.13845 1.11629 0.663938
349.966 1.15002 1.12342 0.653687
350.067 1.16046 1.12983 0.645462
350.167 1.16968 1.13549 0.639489
350.267 1.17757 1.14037 0.635907
350.367 1.18406 1.14442 0.634763
350.468 1.18905 1.14759 0.63601
350.568 1.19248 1.14981 0.639508
350.668 1.19427 1.15103 0.645031
350.768 1.19437 1.15118 0.652275
350.868 1.19272 1.15018 0.66087
350.969 1.1893 1.14796 0.670395
351.069 1.18407 1.14445 0.680394
351.169 1.17702 1.1396 0.690395
351.269 1.16816 1.13335 0.699928
351.369 1.15751 1.12567 0.708543
351.47 1.14508 1.11652 0.71583
351.57 1.13094 1.1059 0.721433
351.67 1.11515 1.09382 0.725063
351.77 1.09778 1.08031 0.726512
351.871 1.07893 1.06542 0.725662
351.971 1.05871 1.04923 0.722484
352.071 1.03725 1.03183 0.717045
352.171 1.01468 1.01334 0.709502
352.271 0.99115 0.993878 0.700097
352.372 0.966813 0.973603 0.689145
352.472 0.941833 0.952668 0.677024
352.572 0.916374 0.931242 0.664159
352.672 0.890605 0.909495 0.651004
352.773 0.864692 0.887601 0.638023
352.873 0.838798 0.865729 0.625677
352.973 0.81308 0.844042 0.614397
353.073 0.787687 0.822692 0.604574
353.173 0.762756 0.801816 0.59654
353.274 0.738413 0.781535 0.590554
353.374 0.714768 0.761951 0.586794
353.474 0.691918 0.743145 0.58535
353.574 0.669943 0.725175 0.586217
353.675 0.648904 0.708079 0.589299
353.775 0.628849 0.69187 0.59441
353.875 0.609808 0.676543 0.601284
353.975 0.591793 0.662075 0.609582
354.075 0.574805 0.648423 0.61891
354.176 0.558829 0.635535 0.62883
354.276 0.543841 0.623344 0.638882
354.376 0.529805 0.611781 0.648597
354.476 0.516678 0.60077 0.657522
354.577 0.504411 0.590236 0.665232
354.677 0.492952 0.580109 0.67135
354.777 0.482246 0.570323 0.675561
354.877 0.472239 0.560824 0.677627
354.977 0.462877 0.551568 0.677391
355.078 0.454113 0.542524 0.674788
355.178 0.445899 0.533674 0.669847
355.278 0.438196 0.525016 0.662688
355.378 0.43097 0.516559 0.653516
355.478 0.424192 0.508328 0.642617
355.579 0.41784 0.500356 0.630344
355.679 0.411897 0.492686 0.617103
355.779 0.40635 0.48537 0.603336
355.879 0.401193 0.478459 0.589505
355.98 0.396422 0.472009 0.576074
356.08 0.392033 0.466072 0.563488
356.18 0.388026 0.460693 0.552158
356.28 0.384401 0.455912 0.542444
356.38 0.381154 0.451757 0.534639
356.481 0.378281 0.448244 0.528959
356.581 0.375776 0.445376 0.525535
356.681 0.373628 0.443139 0.524408
356.781 0.37182 0.441505 0.525526
356.882 0.370334 0.440433 0.528746
356.982 0.369147 0.439866 0.533842
357.082 0.36823 0.439735 0.540515
357.182 0.367551 0.439963 0.5484
357.282 0.367076 0.440463 0.557085
357.383 0.36677 0.441144 0.566129
357.483 0.366593 0.441913 0.575076
357.583 0.366507 0.442681 0.583472
357.683 0.366477 0.443359 0.590892
357.784 0.366467 0.443871 0.596946
357.884 0.366446 0.444147 0.601303
357.984 0.366385 0.444133 0.603699
358.084 0.366264 0.443788 0.603954
358.184 0.366063 0.443087 0.601971
358.285 0.365773 0.442023 0.597746
358.385 0.365389 0.440606 0.591368
358.485 0.364911 0.438861 0.583012
358.585 0.364348 0.436829 0.572936
358.686 0.363712 0.434565 0.561468
358.786 0.36302 0.432133 0.548995
358.886 0.362294 0.429607 0.535945
358.986 0.361558 0.427067 0.522772
359.086 0.360837 0.424595 0.50994
359.187 0.360158 0.42227 0.497899
359.287 0.359547 0.420168 0.487071
359.387 0.359025 0.418358 0.477832
359.487 0.358616 0.416898 0.470499
359.587 0.358333 0.415833 0.465312
359.688 0.358191 0.415196 0.462432
359.788 0.358194 0.415 0.461926
359.888 0.358344 0.415246 0.463773
359.988 0.358636 0.415916 0.467857
360.089 0.359058 0.416976 0.473976
360.189 0.359594 0.418381 0.481849
360.289 0.360223 0.420069 0.491128
360.389 0.360921 0.421969 0.50141
360.489 0.361657 0.424004 0.512252
360.59 0.362403 0.426091 0.523194
360.69 0.363127 0.428145 0.53377
360.79 0.363798 0.430084 0.543532
360.89 0.364388 0.43183 0.552066
360.991 0.364869 0.433315 0.559006
361.091 0.36522 0.434478 0.564054
361.191 0.365423 0.435273 0.566987
361.291 0.365465 0.435668 0.567666
361.391 0.36534 0.435647 0.566044
361.492 0.365048 0.435208 0.562166
361.592 0.364595 0.434369 0.55617
361.692 0.363993 0.433158 0.548276
361.792 0.36326 0.43162 0.538781
361.893 0.362418 0.429811 0.528048
361.993 0.361495 0.427796 0.516489
362.093 0.360521 0.425647 0.504548
362.193 0.359526 0.42344 0.492688
362.293 0.358544 0.421251 0.481365
362.394 0.357605 0.419154 0.471018
362.494 0.35674 0.417218 0.462044
362.594 0.355976 0.415503 0.454789
362.694 0.355335 0.414058 0.449529
362.795 0.354835 0.41292 0.44646
362.895 0.354489 0.412112 0.445695
362.995 0.354303 0.411642 0.44725
363.095 0.354276 0.411503 0.451055
363.195 0.354403 0.411673 0.456947
363.296 0.354672 0.412118 0.464681
363.396 0.355064 0.41279 0.47394
363.496 0.355558 0.413631 0.484348
363.596 0.356128 0.414577 0.495482
363.696 0.356744 0.415559 0.506893
363.797 0.357377 0.416504 0.518119
363.897 0.357995 0.417345 0.52871
363.997 0.358569 0.418015 0.53824
364.097 0.359072 0.418457 0.546328
364.198 0.35948 0.418623 0.552649
364.298 0.359771 0.418477 0.556953
364.398 0.359931 0.417997 0.55907
364.498 0.359951 0.417176 0.558919
364.598 0.359827 0.416023 0.55651
364.699 0.359561 0.414562 0.551945
364.799 0.359163 0.412831 0.545413
364.899 0.358646 0.410881 0.537184
364.999 0.358029 0.408776 0.527595
365.1 0.357337 0.406587 0.517039
365.2 0.356595 0.404394 0.505951
365.3 0.355833 0.402279 0.494785
365.4 0.35508 0.400323 0.484002
365.5 0.354365 0.398604 0.474048
365.601 0.353717 0.397196 0.465336
365.701 0.35316 0.396163 0.458232
365.801 0.352715 0.395555 0.453038
365.901 0.3524 0.395412 0.44998
366.002 0.352226 0.395755 0.4492
366.102 0.352197 0.396592 0.450751
366.202 0.352313 0.397912 0.454591
366.302 0.352567 0.399688 0.460589
366.402 0.352945 0.401878 0.468526
366.503 0.353428 0.404426 0.478109
366.603 0.353994 0.407263 0.488975
366.703 0.354614 0.410311 0.500714
366.803 0.355258 0.413487 0.512878
366.904 0.355895 0.416702 0.525001
367.004 0.356491 0.419868 0.536621
367.104 0.357016 0.4229 0.547292
367.204 0.35744 0.42572 0.556608
367.304 0.357736 0.428257 0.564212
367.405 0.357883 0.430455 0.569819
367.505 0.357865 0.432267 0.573219
367.605 0.357671 0.433666 0.57429
367.705 0.357296 0.434638 0.573
367.805 0.356744 0.435187 0.569412
367.906 0.356023 0.435331 0.563679
368.006 0.355149 0.435105 0.556034
368.106 0.354143 0.434558 0.546791
368.206 0.353031 0.433747 0.53632
368.307 0.351845 0.432741 0.525042
368.407 0.350616 0.431613 0.513408
368.507 0.34938 0.43044 0.501881
368.607 0.348173 0.429298 0.490919
368.707 0.347029 0.428259 0.480953
368.808 0.345981 0.427389 0.472378
368.908 0.345058 0.426744 0.465526
369.008 0.344283 0.426369 0.460664
369.108 0.343679 0.426295 0.457975
369.209 0.343256 0.426538 0.457556
369.309 0.343024 0.427099 0.459411
369.409 0.342982 0.427964 0.463452
369.509 0.343124 0.429101 0.469505
369.609 0.343439 0.430467 0.477312
369.71 0.343909 0.432007 0.486546
369.81 0.34451 0.433656 0.496822
369.91 0.345217 0.43534 0.507711
370.01 0.345999 0.436982 0.518762
370.111 0.346826 0.438506 0.529514
370.211 0.347665 0.439836 0.53952
370.311 0.348485 0.440902 0.548361
370.411 0.349258 0.441642 0.555664
370.511 0.349958 0.442005 0.561119
370.612 0.350564 0.441955 0.564488
370.712 0.351057 0.441468 0.565616
370.812 0.351428 0.440537 0.564438
370.912 0.35167 0.439171 0.560982
371.013 0.351785 0.437397 0.555366
371.113 0.351777 0.435255 0.547794
371.213 0.351661 0.4328 0.538551
371.313 0.351451 0.430098 0.527985
371.413 0.351169 0.427227 0.516502
371.514 0.35084 0.424268 0.504542
371.614 0.350488 0.421309 0.492565
371.714 0.350142 0.418435 0.481033
371.814 0.349829 0.415731 0.470391
371.914 0.349572 0.413275 0.46105
372.015 0.349397 0.411134 0.453368
372.115 0.349321 0.409365 0.44764
372.215 0.349359 0.408013 0.444082
372.315 0.349523 0.407105 0.442826
372.416 0.349815 0.406652 0.443912
372.516 0.350235 0.40665 0.447288
372.616 0.350775 0.407077 0.452811
372.716 0.351422 0.407897 0.460255
372.816 0.35216 0.40906 0.469315
372.917 0.352966 0.410503 0.479626
373.017 0.353815 0.412156 0.490772
373.117 0.354679 0.41394 0.502305
373.217 0.355529 0.415775 0.513762
373.318 0.356336 0.41758 0.524683
373.418 0.357073 0.419277 0.534633
373.518 0.357713 0.420796 0.543212
373.618 0.358235 0.422074 0.550079
373.718 0.35862 0.423061 0.554959
373.819 0.358855 0.42372 0.557658
373.919 0.358933 0.424029 0.558069
374.019 0.358852 0.42398 0.556177
374.119 0.358618 0.423585 0.552058
374.22 0.358241 0.422866 0.545878
374.32 0.357737 0.421864 0.537883
374.42 0.357126 0.420629 0.528395
374.52 0.356435 0.419224 0.517792
374.62 0.355691 0.417718 0.506498
374.721 0.354925 0.416185 0.494964
374.821 0.354167 0.414702 0.48365
374.921 0.353449 0.413342 0.473007
375.021 0.352799 0.412177 0.463459
375.122 0.352243 0.411267 0.455386
375.222 0.351804 0.410665 0.449108
375.322 0.351498 0.41041 0.444872
375.422 0.351337 0.410528 0.442846
375.522 0.351328 0.411028 0.443106
375.623 0.351469 0.411904 0.445638
375.723 0.351754 0.413134 0.450337
375.823 0.352168 0.414681 0.457008
375.923 0.352695 0.416493 0.46538
376.023 0.353309 0.418509 0.475112
376.124 0.353983 0.420655 0.485808
376.224 0.354686 0.422854 0.497032
376.324 0.355386 0.425021 0.508329
376.424 0.356051 0.427074 0.519238
376.525 0.356647 0.428934 0.529313
376.625 0.357146 0.430525 0.538141
376.725 0.357519 0.431781 0.545359
376.825 0.357746 0.432651 0.550666
376.925 0.357809 0.433091 0.553839
377.026 0.357696 0.433079 0.554738
377.126 0.357404 0.432604 0.553314
377.226 0.356935 0.431674 0.54961
377.326 0.356296 0.430314 0.543761
377.427 0.355504 0.428563 0.535985
377.527 0.35458 0.426473 0.52658
377.627 0.35355 0.424111 0.515907
377.727 0.352443 0.42155 0.504379
377.827 0.351295 0.418872 0.492442
377.928 0.350138 0.416161 0.48056
378.028 0.34901 0.413501 0.469195
378.128 0.347945 0.410973 0.458788
378.228 0.346975 0.408653 0.449745
378.329 0.346131 0.406606 0.442415
378.429 0.345437 0.404886 0.437082
378.529 0.344912 0.403533 0.433951
378.629 0.34457 0.402573 0.433139
378.729 0.344418 0.402015 0.434672
378.83 0.344457 0.401851 0.438484
378.93 0.344681 0.402059 0.444418
379.03 0.345077 0.402601 0.452236
379.13 0.345626 0.403426 0.461624
379.23 0.346306 0.404471 0.472206
379.331 0.347089 0.405667 0.483561
379.431 0.347944 0.406936 0.495237
379.531 0.348839 0.408201 0.506773
379.631 0.349743 0.409383 0.51771
379.732 0.350622 0.410409 0.527619
379.832 0.351447 0.411212 0.53611
379.932 0.352192 0.411734 0.54285
380.032 0.352834 0.41193 0.54758
380.132 0.353355 0.411768 0.550118
380.233 0.353745 0.411234 0.550375
380.333 0.353997 0.410325 0.548349
380.433 0.354111 0.409056 0.544133
380.533 0.354095 0.40746 0.537907
380.634 0.353961 0.405579 0.529933
380.734 0.353725 0.40347 0.520541
380.834 0.353411 0.4012 0.510121
380.934 0.353042 0.398842 0.499104
381.034 0.352647 0.396474 0.487943
381.135 0.352254 0.394173 0.477101
381.235 0.351891 0.392018 0.467027
381.335 0.351586 0.390079 0.458139
381.435 0.351363 0.388419 0.450812
381.536 0.351243 0.38709 0.445355
381.636 0.351243 0.386132 0.442007
381.736 0.351374 0.385569 0.44092
381.836 0.351642 0.385411 0.442159
381.936 0.352046 0.38565 0.445697
382.037 0.352581 0.386264 0.451414
382.137 0.353235 0.387215 0.459106
382.237 0.35399 0.388452 0.468489
382.337 0.354825 0.389911 0.479214
382.438 0.355714 0.391521 0.490878
382.538 0.356629 0.393203 0.503042
382.638 0.357541 0.394876 0.515247
382.738 0.358419 0.396458 0.527034
382.838 0.359236 0.397872 0.53796
382.939 0.359962 0.399046 0.547618
383.039 0.360577 0.399918 0.555651
383.139 0.361059 0.400436 0.561768
383.239 0.361395 0.400564 0.565756
383.339 0.361576 0.400279 0.567484
383.44 0.361599 0.399578 0.566913
383.54 0.361469 0.39847 0.564097
383.64 0.361196 0.396982 0.559179
383.74 0.360795 0.395157 0.552383
383.841 0.360287 0.393048 0.544011
383.941 0.359698 0.390724 0.534425
384.041 0.359057 0.388258 0.524038
384.141 0.358394 0.385732 0.513292
384.241 0.357743 0.383228 0.502641
384.342 0.357135 0.380829 0.492539
384.442 0.356601 0.378614 0.483412
384.542 0.35617 0.376653 0.47565
384.642 0.355865 0.375008 0.469585
384.743 0.355705 0.373728 0.465481
384.843 0.355705 0.37285 0.463521
384.943 0.355873 0.372391 0.463802
385.043 0.356208 0.372356 0.466331
385.143 0.356706 0.372732 0.471021
385.244 0.357355 0.373489 0.477698
385.344 0.358137 0.374586 0.486108
385.444 0.359027 0.375966 0.495925
385.544 0.359999 0.377562 0.506764
385.645 0.361021 0.3793 0.5182
385.745 0.362059 0.381101 0.52978
385.845 0.363079 0.382885 0.541043
385.945 0.364046 0.384571 0.55154
386.045 0.364927 0.386086 0.560851
386.146 0.365692 0.387364 0.568599
386.246 0.366316 0.388347 0.574471
386.346 0.366778 0.388993 0.578225
386.446 0.367063 0.389272 0.579703
386.547 0.367161 0.389172 0.578835
386.647 0.367071 0.388694 0.575644
386.747 0.366798 0.387859 0.570246
386.847 0.366353 0.3867 0.562841
386.947 0.365753 0.385264 0.55371
387.048 0.365021 0.383613 0.543202
387.148 0.364185 0.381816 0.53172
387.248 0.363275 0.379949 0.519706
387.348 0.362324 0.378092 0.507622
387.448 0.361368 0.376326 0.495932
387.549 0.360438 0.374729 0.485086
387.649 0.359569 0.373373 0.4755
387.749 0.358789 0.372321 0.467538
387.849 0.358124 0.371625 0.461502
387.95 0.357595 0.371323 0.457617
388.05 0.357218 0.371438 0.45602
388.15 0.357001 0.371978 0.45676
388.25 0.356949 0.372934 0.459793
388.35 0.357056 0.37428 0.464984
388.451 0.357314 0.375976 0.472111
388.551 0.357708 0.377967 0.480878
388.651 0.358217 0.380189 0.490922
388.751 0.358816 0.382567 0.50183
388.852 0.35948 0.38502 0.513156
388.952 0.360179 0.387465 0.524438
389.052 0.360882 0.389819 0.535215
389.152 0.361561 0.392002 0.545047
389.252 0.362188 0.393942 0.553534
389.353 0.36274 0.395575 0.560328
389.453 0.363195 0.396851 0.565149
389.553 0.363539 0.397731 0.567796
389.653 0.363761 0.398195 0.568157
389.754 0.363856 0.398236 0.56621
389.854 0.363827 0.397867 0.562023
389.954 0.363681 0.397113 0.555759
390.054 0.363431 0.396016 0.547659
390.154 0.363096 0.394632 0.53804
390.255 0.362698 0.393027 0.527278
390.355 0.362262 0.391275 0.515798
390.455 0.361817 0.389456 0.50405
390.555 0.361392 0.387651 0.492497
390.656 0.361015 0.385943 0.481596
390.756 0.360714 0.384406 0.471774
390.856 0.360513 0.383112 0.46342
390.956 0.360435 0.382118 0.456862
391.056 0.360494 0.381472 0.452358
391.157 0.360703 0.381207 0.450083
391.257 0.361067 0.38134 0.450126
391.357 0.361585 0.381871 0.452484
391.457 0.36225 0.382785 0.45706
391.557 0.363049 0.384053 0.463671
391.658 0.363963 0.385628 0.472054
391.758 0.36497 0.387453 0.481876
391.858 0.366043 0.389462 0.492746
391.958 0.36715 0.391578 0.504235
392.059 0.36826 0.393722 0.515888
392.159 0.369342 0.395815 0.527245
392.259 0.370362 0.397776 0.53786
392.359 0.371291 0.399533 0.547316
392.459 0.372104 0.40102 0.555246
392.56 0.372777 0.402182 0.561341
392.66 0.373294 0.402978 0.565371
392.76 0.373644 0.403381 0.567185
392.86 0.373821 0.403378 0.566726
392.961 0.373827 0.402974 0.564025
393.061 0.37367 0.402189 0.559206
393.161 0.373365 0.401058 0.552478
393.261 0.372932 0.39963 0.544125
393.361 0.372394 0.397966 0.534501
393.462 0.371782 0.396136 0.524008
393.562 0.371127 0.394214 0.513085
393.662 0.370461 0.392281 0.502189
393.762 0.36982 0.390416 0.491777
393.863 0.369236 0.388695 0.482287
393.963 0.368739 0.38719 0.47412
394.063 0.368356 0.38596 0.467626
394.163 0.368111 0.385057 0.463089
394.263 0.36802 0.384516 0.460714
394.364 0.368096 0.38436 0.46062
394.464 0.368344 0.384594 0.462837
394.564 0.368762 0.385209 0.467301
394.664 0.369342 0.386178 0.473859
394.765 0.37007 0.387462 0.482276
394.865 0.370927 0.389008 0.492238
394.965 0.371888 0.390752 0.503375
395.065 0.372926 0.392623 0.515266
395.165 0.374008 0.394542 0.52746
395.266 0.375103 0.396432 0.539494
395.366 0.376178 0.398213 0.550911
395.466 0.377201 0.399812 0.561276
395.566 0.378145 0.401162 0.570198
395.666 0.378982 0.402207 0.57734
395.767 0.379692 0.402902 0.582438
395.867 0.380258 0.403216 0.585307
395.967 0.380672 0.403134 0.585849
396.067 0.380928 0.402658 0.584061
396.168 0.38103 0.401805 0.580028
396.268 0.380986 0.400607 0.573927
396.368 0.380811 0.399111 0.566015
396.468 0.380525 0.397376 0.556621
396.568 0.380152 0.39547 0.546132
396.669 0.379719 0.39347 0.534978
396.769 0.379257 0.391456 0.523614
396.869 0.378795 0.38951 0.512504
396.969 0.378365 0.387711 0.502099
397.07 0.377995 0.386133 0.492825
397.17 0.377712 0.384842 0.485058
397.27 0.377537 0.383892 0.479116
397.37 0.377489 0.383324 0.475243
397.47 0.37758 0.383166 0.473601
397.571 0.377815 0.383427 0.47426
397.671 0.378195 0.384103 0.477201
397.771 0.378714 0.38517 0.482311
397.871 0.379359 0.386592 0.489391
397.972 0.380111 0.388317 0.498165
398.072 0.38095 0.39028 0.508287
398.172 0.381847 0.39241 0.519356
398.272 0.382773 0.394626 0.530936
398.372 0.383696 0.396845 0.542568
398.473 0.384586 0.398983 0.553791
398.573 0.38541 0.400959 0.564161
398.673 0.38614 0.402699 0.573266
398.773 0.386751 0.404137 0.580746
398.874 0.38722 0.405219 0.586303
398.974 0.387532 0.405905 0.589717
399.074 0.387676 0.406171 0.590853
399.174 0.387647 0.406006 0.589665
399.274 0.387448 0.40542 0.586201
399.375 0.387088 0.404436 0.580597
399.475 0.38658 0.403094 0.573076
399.575 0.385945 0.401447 0.563935
399.675 0.385208 0.39956 0.553535
399.775 0.384396 0.397506 0.542288
399.876 0.383542 0.395367 0.530638
399.976 0.382678 0.393224 0.519045
400.076 0.381836 0.39116 0.507964
400.176 0.381048 0.389255 0.497833
400.277 0.380343 0.387581 0.489047
400.377 0.379747 0.386202 0.481949
400.477 0.379281 0.385167 0.476815
400.577 0.378961 0.384516 0.473839
400.677 0.378796 0.384269 0.473131
400.778 0.378791 0.384432 0.474709
400.878 0.378941 0.384996 0.4785
400.978 0.379239 0.385934 0.484342
401.078 0.379668 0.387205 0.49199
401.179 0.380208 0.388756 0.501129
401.279 0.380835 0.390522 0.511382
401.379 0.381519 0.39243 0.522329
401.479 0.38223 0.394403 0.533521
401.579 0.382935 0.396361 0.5445
401.68 0.383604 0.398226 0.554819
401.78 0.384205 0.399923 0.564053
401.88 0.384711 0.401386 0.571824
401.98 0.385099 0.402558 0.577812
402.081 0.385349 0.403395 0.581768
402.181 0.385446 0.403867 0.583526
402.281 0.385385 0.40396 0.583007
402.381 0.385164 0.403673 0.580224
402.481 0.384787 0.403026 0.575282
402.582 0.384266 0.402049 0.568373
402.682 0.383618 0.40079 0.559766
402.782 0.382866 0.399307 0.549802
402.882 0.382036 0.397666 0.538876
402.983 0.381157 0.395945 0.527423
403.083 0.380261 0.39422 0.515899
403.183 0.37938 0.392572 0.504764
403.283 0.378545 0.391077 0.494466
403.383 0.377788 0.389807 0.48542
403.484 0.377133 0.388825 0.477989
403.584 0.376605 0.388181 0.472478
403.684 0.376221 0.387915 0.469114
403.784 0.375993 0.38805 0.468039
403.884 0.375927 0.388594 0.469305
403.985 0.376023 0.389539 0.472874
404.085 0.376275 0.390859 0.478614
404.185 0.376669 0.392517 0.486309
404.285 0.377187 0.394459 0.495666
404.386 0.377806 0.39662 0.506325
404.486 0.3785 0.398929 0.517877
404.586 0.379238 0.401306 0.529877
404.686 0.379989 0.403668 0.54186
404.786 0.380722 0.405934 0.553367
404.887 0.381405 0.408026 0.563954
404.987 0.382011 0.409873 0.573215
405.087 0.382515 0.411412 0.580798
405.187 0.382894 0.412593 0.586418
405.288 0.383135 0.413381 0.589865
405.388 0.383226 0.413753 0.591019
405.488 0.383164 0.413707 0.58985
405.588 0.382953 0.413252 0.586419
405.688 0.3826 0.412418 0.580879
405.789 0.382121 0.411246 0.573463
405.889 0.381536 0.409793 0.564482
405.989 0.380869 0.408123 0.554307
406.089 0.380149 0.406313 0.543356
406.19 0.379406 0.404443 0.532076
406.29 0.378671 0.402594 0.520928
406.39 0.377976 0.400847 0.510367
406.49 0.377352 0.39928 0.500822
406.59 0.376825 0.397962 0.492683
406.691 0.37642 0.396951 0.486281
406.791 0.376155 0.396294 0.481876
406.891 0.376045 0.396024 0.479652
406.991 0.376097 0.396157 0.479699
407.092 0.376312 0.396693 0.482021
407.192 0.376685 0.397617 0.486527
407.292 0.377205 0.398896 0.493039
407.392 0.377856 0.400486 0.501298
407.492 0.378615 0.402326 0.510975
407.593 0.379455 0.404348 0.521683
407.693 0.380348 0.406476 0.532994
407.793 0.381263 0.40863 0.544454
407.893 0.382165 0.410726 0.555602
407.993 0.383026 0.412685 0.565991
408.094 0.383813 0.414432 0.5752
408.194 0.384501 0.415901 0.582858
408.294 0.385067 0.417036 0.588653
408.394 0.385492 0.417794 0.592347
408.495 0.385766 0.418147 0.593786
408.595 0.38588 0.418084 0.592904
408.695 0.385837 0.417608 0.589728
408.795 0.385643 0.41674 0.584375
408.895 0.38531 0.415516 0.57705
408.996 0.384857 0.413986 0.568036
409.096 0.384307 0.412211 0.557681
409.196 0.383689 0.410263 0.546388
409.296 0.383031 0.40822 0.534598
409.397 0.382366 0.406162 0.522769
409.497 0.381725 0.404173 0.511362
409.597 0.38114 0.402331 0.500822
409.697 0.38064 0.400708 0.491559
409.797 0.38025 0.399369 0.48393
409.898 0.379991 0.398366 0.47823
409.998 0.37988 0.397739 0.474675
410.098 0.379927 0.39751 0.473399
410.198 0.380135 0.397688 0.474441
410.299 0.380501 0.398264 0.477751
410.399 0.381016 0.399214 0.483189
410.499 0.381666 0.400499 0.490529
410.599 0.382429 0.402066 0.499473
410.699 0.383279 0.403851 0.509655
410.8 0.384189 0.405782 0.520664
410.9 0.385125 0.40778 0.532056
411 0.386056 0.409765 0.543372
411.1 0.386949 0.411656 0.554156
411.201 0.387771 0.413377 0.563977
411.301 0.388494 0.414859 0.572441
411.401 0.389093 0.416043 0.579209
411.501 0.389546 0.41688 0.584012
411.601 0.389839 0.417337 0.586658
411.702 0.389962 0.417396 0.587045
411.802 0.389913 0.417056 0.585161
411.902 0.389696 0.41633 0.581084
412.002 0.389321 0.415249 0.574981
412.102 0.388805 0.413858 0.567104
412.203 0.38817 0.412213 0.557772
412.303 0.387441 0.410382 0.547366
412.403 0.386649 0.408441 0.536309
412.503 0.385826 0.40647 0.525054
412.604 0.385004 0.404552 0.51406
412.704 0.384218 0.402765 0.503776
412.804 0.383497 0.401186 0.494626
412.904 0.382871 0.399882 0.486988
413.004 0.382365 0.39891 0.481181
413.105 0.381998 0.398313 0.477453
413.205 0.381785 0.398123 0.475967
413.305 0.381734 0.398352 0.476799
413.405 0.381846 0.398997 0.479934
413.506 0.382118 0.40004 0.485264
413.606 0.382537 0.401446 0.492595
413.706 0.383087 0.403168 0.501655
413.806 0.383746 0.405143 0.5121
413.906 0.384488 0.407303 0.523535
414.007 0.385283 0.409568 0.535523
414.107 0.386101 0.411858 0.547607
414.207 0.38691 0.414091 0.559326
414.307 0.387678 0.416185 0.570234
414.408 0.388376 0.418068 0.579916
414.508 0.388976 0.419674 0.588009
414.608 0.389458 0.420948 0.594209
414.708 0.389804 0.421849 0.598293
414.808 0.390002 0.422351 0.600117
414.909 0.390046 0.422444 0.599631
415.009 0.389938 0.422133 0.596876
415.109 0.389685 0.421442 0.591981
415.209 0.3893 0.420406 0.585163
415.31 0.388801 0.419076 0.576715
415.41 0.388214 0.417516 0.566994
415.51 0.387564 0.415795 0.556408
415.61 0.386883 0.413991 0.545398
415.71 0.386202 0.412186 0.534423
415.811 0.385552 0.410458 0.52394
415.911 0.384964 0.408885 0.514385
416.011 0.384468 0.407537 0.506159
416.111 0.384089 0.406475 0.499606
416.211 0.383846 0.405748 0.495006
416.312 0.383756 0.405392 0.492559
416.412 0.383828 0.405427 0.492378
416.512 0.384065 0.405857 0.494488
416.612 0.384465 0.406671 0.498819
416.713 0.385018 0.40784 0.505214
416.813 0.385708 0.409322 0.513432
416.913 0.386516 0.411064 0.523159
417.013 0.387416 0.412998 0.534021
417.113 0.388379 0.415051 0.545597
417.214 0.389375 0.417144 0.557438
417.314 0.390372 0.419196 0.569083
417.414 0.391338 0.421128 0.58008
417.514 0.392241 0.422864 0.590001
417.615 0.393056 0.424337 0.59846
417.715 0.393757 0.425489 0.60513
417.815 0.394325 0.426276 0.609755
417.915 0.394746 0.426667 0.61216
418.015 0.395013 0.426647 0.612258
418.116 0.395123 0.426216 0.610053
418.216 0.395082 0.425393 0.605643
418.316 0.394901 0.42421 0.599211
418.416 0.394595 0.422715 0.591024
418.517 0.394188 0.420966 0.581416
418.617 0.393705 0.419033 0.570779
418.717 0.393174 0.416992 0.559546
418.817 0.392627 0.414925 0.548175
418.917 0.392096 0.412913 0.537129
419.018 0.391612 0.411036 0.526859
419.118 0.391202 0.409368 0.517785
419.218 0.390895 0.407975 0.51028
419.318 0.390712 0.406911 0.504656
419.419 0.390669 0.406219 0.50115
419.519 0.390779 0.405925 0.499915
419.619 0.391045 0.406041 0.501015
419.719 0.391468 0.406561 0.504421
419.819 0.392039 0.407464 0.510014
419.92 0.392744 0.408714 0.517589
420.02 0.393565 0.41026 0.52686
420.12 0.394476 0.412041 0.537477
420.22 0.395451 0.413985 0.549037
420.32 0.396457 0.416016 0.5611
420.421 0.397463 0.418051 0.573206
420.521 0.398436 0.420011 0.584895
420.621 0.399344 0.421818 0.595723
420.721 0.400158 0.4234 0.605283
420.822 0.400851 0.424695 0.613218
420.922 0.401403 0.425653 0.619236
421.022 0.401797 0.426236 0.623121
421.122 0.402022 0.426423 0.624745
421.222 0.402074 0.426209 0.624068
421.323 0.401957 0.425603 0.621143
421.423 0.401678 0.424632 0.616111
421.523 0.401254 0.423338 0.609199
421.623 0.400703 0.421775 0.600706
421.724 0.400052 0.420008 0.590996
421.824 0.399329 0.418111 0.58048
421.924 0.398566 0.416164 0.569601
422.024 0.397794 0.414247 0.558813
422.124 0.397047 0.412442 0.548569
422.225 0.396356 0.410825 0.539298
422.325 0.39575 0.409464 0.531388
422.425 0.395253 0.40842 0.525172
422.525 0.394887 0.407738 0.520914
422.626 0.394665 0.407451 0.518801
422.726 0.394599 0.407576 0.518928
422.826 0.394689 0.408114 0.521305
422.926 0.394932 0.409047 0.525845
423.026 0.395319 0.410345 0.532377
423.127 0.395833 0.411962 0.540648
423.227 0.396454 0.413838 0.550334
423.327 0.397155 0.415905 0.561051
423.427 0.397909 0.418085 0.572375
423.528 0.398684 0.420297 0.583855
423.628 0.399448 0.422458 0.595031
423.728 0.400171 0.424487 0.605456
423.828 0.400823 0.426307 0.614708
423.928 0.401377 0.427852 0.622413
424.029 0.40181 0.429062 0.628257
424.129 0.402104 0.429896 0.631996
424.229 0.402247 0.430322 0.633473
424.329 0.402232 0.430328 0.632615
424.429 0.402061 0.429917 0.629445
424.53 0.401739 0.429108 0.624075
424.63 0.401279 0.427936 0.616703
424.73 0.4007 0.42645 0.607607
424.83 0.400025 0.424712 0.597134
424.931 0.399281 0.422792 0.585682
425.031 0.398498 0.420769 0.57369
425.131 0.397709 0.418725 0.561617
425.231 0.396946 0.416742 0.549923
425.331 0.396239 0.414901 0.539056
425.432 0.39562 0.413275 0.529428
425.532 0.395113 0.411931 0.521402
425.632 0.394741 0.410922 0.515277
425.732 0.39452 0.410289 0.511276
425.833 0.394461 0.410059 0.509537
425.933 0.394568 0.41024 0.510108
426.033 0.39484 0.410826 0.512947
426.133 0.395267 0.411794 0.517918
426.233 0.395835 0.413108 0.524804
426.334 0.396525 0.414714 0.53331
426.434 0.397311 0.41655 0.543076
426.534 0.398164 0.418545 0.553695
426.634 0.399054 0.420619 0.564724
426.735 0.399948 0.422693 0.575706
426.835 0.400812 0.424684 0.586186
426.935 0.401616 0.426516 0.59573
427.035 0.40233 0.428117 0.603941
427.135 0.402928 0.429426 0.610477
427.236 0.40339 0.430394 0.615065
427.336 0.403699 0.430984 0.617508
427.436 0.403847 0.431175 0.617698
427.536 0.40383 0.430964 0.615615
427.637 0.40365 0.43036 0.611335
427.737 0.403318 0.429392 0.605018
427.837 0.40285 0.4281 0.596909
427.937 0.402265 0.42654 0.587327
428.037 0.40159 0.424776 0.576647
428.138 0.400852 0.422881 0.565293
428.238 0.400084 0.420933 0.553714
428.338 0.399317 0.419013 0.542371
428.438 0.398584 0.417199 0.531716
428.538 0.397914 0.415565 0.522176
428.639 0.397336 0.414178 0.514132
428.739 0.396873 0.413094 0.50791
428.839 0.396545 0.412358 0.503762
428.939 0.396365 0.412 0.501859
429.04 0.396341 0.412033 0.502283
429.14 0.396473 0.412456 0.505026
429.24 0.396758 0.413251 0.509986
429.34 0.397182 0.414386 0.516974
429.44 0.39773 0.415813 0.525723
429.541 0.398378 0.417474 0.535894
429.641 0.399101 0.4193 0.547093
429.741 0.39987 0.421215 0.558885
429.841 0.400652 0.423139 0.570812
429.942 0.401416 0.424993 0.582411
430.042 0.402132 0.426699 0.593233
430.142 0.402769 0.428184 0.602859
430.242 0.403302 0.429385 0.610919
430.342 0.403709 0.43025 0.617104
430.443 0.403973 0.430739 0.621181
430.543 0.404082 0.430828 0.623001
430.643 0.404033 0.430508 0.622504
430.743 0.403825 0.429789 0.619723
430.844 0.403469 0.428692 0.614782
430.944 0.402977 0.427259 0.60789
431.044 0.402369 0.42554 0.599334
431.144 0.401669 0.423601 0.589468
431.244 0.400907 0.421515 0.578696
431.345 0.400112 0.419361 0.56746
431.445 0.399317 0.417221 0.556219
431.545 0.398555 0.415177 0.545432
431.645 0.397856 0.413309 0.535539
431.746 0.397251 0.411688 0.526947
431.846 0.396765 0.410377 0.520007
431.946 0.396419 0.409426 0.515007
432.046 0.396228 0.408873 0.512156
432.146 0.396202 0.408737 0.511577
432.247 0.396345 0.409026 0.513303
432.347 0.396653 0.409726 0.517275
432.447 0.397116 0.41081 0.523344
432.547 0.397719 0.412236 0.531276
432.647 0.39844 0.413949 0.540766
432.748 0.399254 0.415881 0.551444
432.848 0.40013 0.417957 0.562894
432.948 0.401038 0.420096 0.574666
433.048 0.401943 0.422216 0.586302
433.149 0.402814 0.424234 0.597345
433.249 0.403617 0.426072 0.607365
433.349 0.404325 0.42766 0.615968
433.449 0.404911 0.428937 0.622822
433.549 0.405356 0.429855 0.627659
433.65 0.405645 0.430382 0.630294
433.75 0.405768 0.430497 0.63063
433.85 0.405724 0.4302 0.628659
433.95 0.405517 0.429506 0.624465
434.051 0.405157 0.428444 0.618223
434.151 0.404662 0.42706 0.610184
434.251 0.404052 0.42541 0.600674
434.351 0.403355 0.423564 0.590077
434.451 0.402599 0.421597 0.578816
434.552 0.401817 0.419589 0.567343
434.652 0.401041 0.417622 0.556118
434.752 0.400305 0.415776 0.545587
434.852 0.399638 0.414125 0.536172
434.953 0.399069 0.412738 0.528245
435.053 0.398621 0.41167 0.522122
435.153 0.398313 0.410964 0.518044
435.253 0.39816 0.41065 0.51617
435.353 0.398168 0.410741 0.516571
435.454 0.398339 0.411233 0.519226
435.554 0.398666 0.412107 0.524024
435.654 0.399139 0.41333 0.530767
435.754 0.39974 0.414852 0.53918
435.855 0.400446 0.416613 0.54892
435.955 0.401233 0.418544 0.559592
436.055 0.402069 0.420568 0.570762
436.155 0.402925 0.422605 0.581976
436.255 0.403769 0.424574 0.59278
436.356 0.404571 0.426397 0.602733
436.456 0.405301 0.428003 0.61143
436.556 0.405934 0.429329 0.618516
436.656 0.406448 0.430323 0.623699
436.756 0.406828 0.430947 0.626764
436.857 0.407063 0.431178 0.627581
436.957 0.407148 0.431008 0.62611
437.057 0.407085 0.430447 0.6224
437.157 0.406882 0.429519 0.616593
437.258 0.406553 0.428263 0.608912
437.358 0.406117 0.426732 0.599659
437.458 0.405599 0.424991 0.589194
437.558 0.405025 0.423112 0.577931
437.658 0.404425 0.421172 0.566312
437.759 0.40383 0.419254 0.554797
437.859 0.403271 0.417436 0.54384
437.959 0.402779 0.415796 0.533874
438.059 0.402379 0.414401 0.525294
438.16 0.402095 0.413313 0.518439
438.26 0.401947 0.412577 0.51358
438.36 0.401948 0.412228 0.510909
438.46 0.402105 0.412283 0.510531
438.56 0.402419 0.412744 0.51246
438.661 0.402886 0.413596 0.516618
438.761 0.403495 0.414809 0.522839
438.861 0.404228 0.416339 0.530874
438.961 0.405062 0.418127 0.540404
439.062 0.405973 0.420106 0.551047
439.162 0.406929 0.4222 0.56238
439.262 0.4079 0.424329 0.57395
439.362 0.408853 0.42641 0.585297
439.462 0.409756 0.428363 0.595967
439.563 0.410579 0.430112 0.605535
439.663 0.411296 0.43159 0.613619
439.763 0.411882 0.43274 0.619895
439.863 0.41232 0.433517 0.624112
439.964 0.412598 0.433892 0.626101
440.064 0.41271 0.433852 0.625779
440.164 0.412656 0.433397 0.623158
440.264 0.412444 0.432549 0.618339
440.364 0.412086 0.43134 0.611511
440.465 0.411602 0.42982 0.602941
440.565 0.411015 0.428049 0.592967
440.665 0.410355 0.426098 0.581981
440.765 0.409651 0.424045 0.570416
440.865 0.408937 0.421972 0.558725
440.966 0.408246 0.419961 0.547368
441.066 0.407611 0.418093 0.536789
441.166 0.407062 0.416441 0.527402
441.266 0.406626 0.415072 0.519572
441.367 0.406327 0.41404 0.513601
441.467 0.406181 0.413386 0.509716
441.567 0.4062 0.413137 0.50806
441.667 0.406389 0.413302 0.508689
441.767 0.406747 0.413876 0.511564
441.868 0.407265 0.414835 0.516557
441.968 0.40793 0.416144 0.523456
442.068 0.408722 0.41775 0.53197
442.168 0.409615 0.419591 0.541746
442.269 0.410581 0.421594 0.552378
442.369 0.411588 0.423683 0.563427
442.469 0.412604 0.425774 0.574435
442.569 0.413594 0.427788 0.584948
442.669 0.414528 0.429647 0.594528
442.77 0.415373 0.431278 0.602777
442.87 0.416105 0.432621 0.609348
442.97 0.4167 0.433626 0.613962
443.07 0.417143 0.434255 0.616417
443.171 0.417422 0.434487 0.616597
443.271 0.417533 0.434319 0.614477
443.371 0.417479 0.433761 0.610125
443.471 0.417266 0.43284 0.603696
443.571 0.416911 0.431597 0.59543
443.672 0.416433 0.430089 0.585638
443.772 0.415856 0.42838 0.574695
443.872 0.415208 0.426544 0.563021
443.972 0.414519 0.424661 0.551065
444.073 0.413822 0.422811 0.53929
444.173 0.413146 0.421076 0.528149
444.273 0.412523 0.419529 0.518073
444.373 0.41198 0.418241 0.509451
444.473 0.41154 0.417268 0.502614
444.574 0.411223 0.416657 0.497822
444.674 0.411041 0.416439 0.495255
444.774 0.411002 0.41663 0.495006
444.874 0.411108 0.417228 0.497075
444.974 0.411352 0.418218 0.501371
445.075 0.411724 0.419567 0.507715
445.175 0.412207 0.421228 0.515847
445.275 0.412779 0.423142 0.525437
445.375 0.413413 0.425241 0.536097
445.476 0.414081 0.427447 0.547397
445.576 0.414751 0.429679 0.558884
445.676 0.415391 0.431857 0.570097
445.776 0.415971 0.433899 0.580585
445.876 0.416462 0.435732 0.589929
445.977 0.416837 0.437289 0.597755
446.077 0.417076 0.438515 0.603751
446.177 0.417161 0.439367 0.607677
446.277 0.417082 0.439819 0.609377
446.378 0.416834 0.439859 0.608783
446.478 0.41642 0.439491 0.60592
446.578 0.415848 0.438738 0.600903
446.678 0.415133 0.437634 0.593932
446.778 0.414294 0.436231 0.585288
446.879 0.413358 0.434591 0.575315
446.979 0.412353 0.432784 0.564412
447.079 0.41131 0.43089 0.553015
447.179 0.410264 0.428989 0.541578
447.28 0.409248 0.427164 0.530557
447.38 0.408294 0.425493 0.520393
447.48 0.407433 0.424048 0.511489
447.58 0.406691 0.422893 0.504199
447.68 0.40609 0.42208 0.498814
447.781 0.405648 0.421647 0.495545
447.881 0.405373 0.421616 0.49452
447.981 0.405272 0.421995 0.495778
448.081 0.405341 0.422774 0.499263
448.181 0.405571 0.423927 0.504833
448.282 0.405948 0.425414 0.51226
448.382 0.40645 0.427182 0.521242
448.482 0.407052 0.429165 0.531415
448.582 0.407724 0.431289 0.542366
448.683 0.408436 0.433475 0.55365
448.783 0.409155 0.435642 0.564808
448.883 0.409846 0.437706 0.575387
448.983 0.410479 0.439592 0.584954
449.083 0.411024 0.441229 0.593118
449.184 0.411456 0.442557 0.599541
449.284 0.411754 0.443527 0.603955
449.384 0.411903 0.444104 0.606173
449.484 0.411894 0.444271 0.606091
449.585 0.411724 0.444024 0.603701
449.685 0.411398 0.443378 0.599083
449.785 0.410925 0.442361 0.592407
449.885 0.410323 0.441019 0.583924
449.985 0.409612 0.439406 0.573957
450.086 0.408819 0.437592 0.562888
450.186 0.407973 0.435651 0.551142
450.286 0.407107 0.433662 0.539172
450.386 0.406252 0.431708 0.527438
450.487 0.405442 0.429868 0.516393
450.587 0.404706 0.428218 0.50646
450.687 0.404074 0.426824 0.498019
450.787 0.403569 0.425743 0.49139
450.887 0.403209 0.42502 0.486821
450.988 0.403009 0.424684 0.484477
451.088 0.402975 0.424748 0.484437
451.188 0.403108 0.425211 0.486686
451.288 0.403403 0.426054 0.491117
451.389 0.403847 0.427243 0.49754
451.489 0.404423 0.42873 0.505683
451.589 0.405107 0.430456 0.515206
451.689 0.405873 0.43235 0.525714
451.789 0.406691 0.434336 0.536774
451.89 0.407529 0.436335 0.547932
451.99 0.408353 0.438265 0.558728
452.09 0.409134 0.440048 0.568718
452.19 0.409839 0.441612 0.577491
452.29 0.410444 0.442894 0.584684
452.391 0.410925 0.44384 0.589999
452.491 0.411265 0.444412 0.59321
452.591 0.411453 0.444586 0.594179
452.691 0.411483 0.444353 0.592855
452.792 0.411356 0.443723 0.589279
452.892 0.411079 0.442718 0.583584
452.992 0.410667 0.441378 0.575987
453.092 0.410137 0.439757 0.566779
453.192 0.409515 0.437917 0.556318
453.293 0.408827 0.435933 0.545013
453.393 0.408103 0.433882 0.533304
453.493 0.407376 0.431846 0.52165
453.593 0.406677 0.429907 0.510507
453.694 0.406037 0.428143 0.50031
453.794 0.405484 0.426625 0.49146
453.894 0.405043 0.425413 0.484301
453.994 0.404735 0.424558 0.479112
454.094 0.404575 0.424094 0.476093
454.195 0.404572 0.424042 0.475357
454.295 0.40473 0.424406 0.476929
454.395 0.405044 0.425173 0.480741
454.495 0.405506 0.426315 0.486634
454.596 0.4061 0.427789 0.494369
454.696 0.406805 0.429539 0.503633
454.796 0.407597 0.431497 0.514054
454.896 0.408447 0.43359 0.525211
454.996 0.409324 0.435737 0.536656
455.097 0.410198 0.437855 0.547931
455.197 0.411036 0.439865 0.558583
455.297 0.411808 0.441689 0.568186
455.397 0.412489 0.443258 0.576355
455.498 0.413055 0.444514 0.582763
455.598 0.413487 0.445412 0.587154
455.698 0.413773 0.445918 0.589352
455.798 0.413906 0.446017 0.589269
455.898 0.413885 0.445709 0.586909
455.999 0.413717 0.44501 0.582367
456.099 0.413413 0.443952 0.575826
456.199 0.412992 0.442581 0.567546
456.299 0.412475 0.440954 0.557862
456.399 0.411889 0.439141 0.54716
456.5 0.411264 0.437217 0.535871
456.6 0.410631 0.435261 0.524447
456.7 0.410022 0.433354 0.513349
456.8 0.409468 0.431575 0.503021
456.901 0.408998 0.429996 0.493882
457.001 0.408637 0.428683 0.486299
457.101 0.408407 0.427689 0.480581
457.201 0.408325 0.427055 0.47696
457.301 0.4084 0.426806 0.475589
457.402 0.408636 0.426954 0.476528
457.502 0.409031 0.427491 0.479746
457.602 0.409576 0.428395 0.485123
457.702 0.410256 0.42963 0.492453
457.803 0.41105 0.431145 0.501451
457.903 0.411934 0.432876 0.511767
458.003 0.412876 0.434754 0.522999
458.103 0.413847 0.436699 0.534709
458.203 0.414812 0.438631 0.54644
458.304 0.415738 0.440469 0.557733
458.404 0.416592 0.442136 0.568149
458.504 0.417345 0.443561 0.577284
458.604 0.417971 0.444682 0.584784
458.705 0.418447 0.445449 0.590361
458.805 0.418759 0.445827 0.593803
458.905 0.418896 0.445794 0.594986
459.005 0.418854 0.445346 0.593872
459.105 0.418637 0.444495 0.590518
459.206 0.418255 0.443269 0.585069
459.306 0.417724 0.441711 0.577754
459.406 0.417066 0.439877 0.568874
459.506 0.416306 0.437833 0.558794
459.607 0.415475 0.435655 0.547928
459.707 0.414606 0.433424 0.536718
459.807 0.413732 0.431223 0.525622
459.907 0.412888 0.429135 0.515091
460.007 0.412106 0.427237 0.505553
460.108 0.411416 0.4256 0.497398
460.208 0.410844 0.424284 0.490959
460.308 0.410412 0.423338 0.486499
460.408 0.410137 0.422795 0.484202
460.508 0.410027 0.422674 0.484167
460.609 0.410086 0.422975 0.4864
460.709 0.410312 0.423684 0.490815
460.809 0.410695 0.42477 0.497241
460.909 0.41122 0.426188 0.505425
461.01 0.411865 0.42788 0.515041
461.11 0.412607 0.429776 0.525708
461.21 0.413417 0.431802 0.537002
461.31 0.414265 0.433875 0.548471
461.41 0.415118 0.435913 0.559657
461.511 0.415946 0.437835 0.570113
461.611 0.416719 0.439565 0.579419
461.711 0.417411 0.441036 0.587202
461.811 0.417999 0.442189 0.593146
461.912 0.418464 0.442981 0.597012
462.012 0.418796 0.443381 0.59864
462.112 0.418987 0.443376 0.597961
462.212 0.419037 0.442969 0.594996
462.312 0.418953 0.442178 0.589857
462.413 0.418748 0.441037 0.582743
462.513 0.418438 0.439594 0.573932
462.613 0.418047 0.43791 0.563769
462.713 0.417601 0.436055 0.552653
462.814 0.417131 0.434105 0.541022
462.914 0.416666 0.432141 0.529332
463.014 0.416238 0.430246 0.518044
463.114 0.415878 0.428496 0.507604
463.214 0.415613 0.426965 0.498421
463.315 0.415469 0.425718 0.490859
463.415 0.415467 0.424807 0.485213
463.515 0.41562 0.424271 0.481706
463.615 0.415939 0.424135 0.480475
463.716 0.416427 0.424407 0.481566
463.816 0.41708 0.425081 0.484935
463.916 0.417888 0.426131 0.490446
464.016 0.418836 0.42752 0.497879
464.116 0.419902 0.429195 0.506939
464.217 0.421061 0.431094 0.517265
464.317 0.422284 0.433143 0.528448
464.417 0.423537 0.435265 0.540045
464.517 0.424789 0.437379 0.551597
464.617 0.426006 0.439404 0.562648
464.718 0.427157 0.441263 0.572762
464.818 0.428212 0.442888 0.581541
464.918 0.429146 0.444216 0.588641
465.018 0.429938 0.4452 0.593785
465.119 0.430573 0.445804 0.596776
465.219 0.431042 0.44601 0.597501
465.319 0.431343 0.445815 0.59594
465.419 0.43148 0.445231 0.592162
465.519 0.431462 0.444286 0.586327
465.62 0.431307 0.443025 0.578676
465.72 0.431035 0.441503 0.569521
465.82 0.430673 0.439786 0.559237
465.92 0.430249 0.437948 0.548243
466.021 0.429796 0.43607 0.536983
466.121 0.429346 0.434232 0.525917
466.221 0.428931 0.432513 0.515493
466.321 0.428581 0.430989 0.506134
466.421 0.428323 0.429727 0.49822
466.522 0.428181 0.428782 0.492075
466.622 0.428174 0.4282 0.48795
466.722 0.428313 0.42801 0.486015
466.822 0.428605 0.428225 0.486353
466.923 0.429051 0.428843 0.488955
467.023 0.429643 0.429845 0.493724
467.123 0.430368 0.431197 0.500471
467.223 0.431208 0.432852 0.508932
467.323 0.432139 0.434748 0.518771
467.424 0.433133 0.436815 0.529599
467.524 0.434159 0.438976 0.540986
467.624 0.435183 0.441149 0.552477
467.724 0.436172 0.443251 0.563615
467.825 0.437093 0.445204 0.573955
467.925 0.437916 0.446932 0.583084
468.025 0.438613 0.44837 0.590634
468.125 0.43916 0.449464 0.596304
468.225 0.43954 0.450172 0.599863
468.326 0.43974 0.450468 0.601165
468.426 0.439755 0.450342 0.600153
468.526 0.439585 0.449801 0.596863
468.626 0.439238 0.448865 0.591419
468.726 0.438727 0.447573 0.584031
468.827 0.438072 0.445976 0.574987
468.927 0.437296 0.444137 0.564638
469.027 0.436428 0.442128 0.553389
469.127 0.435499 0.440028 0.541678
469.228 0.434541 0.437917 0.529963
469.328 0.433588 0.435878 0.518699
469.428 0.432671 0.433989 0.508324
469.528 0.43182 0.432322 0.49924
469.628 0.431061 0.430939 0.491796
469.729 0.430416 0.429891 0.486276
469.829 0.429903 0.429216 0.482886
469.929 0.429531 0.428935 0.481747
470.029 0.429305 0.429053 0.482889
470.13 0.429223 0.429562 0.486252
470.23 0.429278 0.430433 0.491686
470.33 0.429454 0.431627 0.498958
470.43 0.429733 0.433088 0.507761
470.53 0.430091 0.434752 0.517728
470.631 0.4305 0.436546 0.528443
470.731 0.430931 0.43839 0.539463
470.831 0.431352 0.440203 0.550329
470.931 0.431733 0.441906 0.560591
471.032 0.432046 0.443422 0.569821
471.132 0.432262 0.444684 0.577633
471.232 0.432361 0.445632 0.583698
471.332 0.432322 0.446221 0.587754
471.432 0.432135 0.446419 0.589623
471.533 0.431792 0.446211 0.58921
471.633 0.431294 0.445595 0.586516
471.733 0.430646 0.444588 0.581629
471.833 0.42986 0.443222 0.574726
471.934 0.428956 0.441544 0.566065
472.034 0.427955 0.439611 0.555976
472.134 0.426886 0.437493 0.544842
472.234 0.425777 0.435265 0.533093
472.334 0.424662 0.43301 0.521181
472.435 0.423572 0.430808 0.509565
472.535 0.42254 0.428739 0.498694
472.635 0.421596 0.426878 0.488988
472.735 0.420766 0.425292 0.480819
472.835 0.420072 0.424036 0.474501
472.936 0.419533 0.423153 0.470273
473.036 0.419159 0.422671 0.468292
473.136 0.418955 0.422601 0.468627
473.236 0.41892 0.422939 0.471253
473.337 0.419047 0.423665 0.476055
473.437 0.41932 0.424744 0.482834
473.537 0.41972 0.426124 0.491311
473.637 0.420222 0.427745 0.501139
473.737 0.420798 0.429536 0.51192
473.838 0.421415 0.431418 0.523217
473.938 0.422041 0.433311 0.534573
474.038 0.422641 0.435132 0.545529
474.138 0.423184 0.436804 0.555645
474.239 0.423639 0.438254 0.564511
474.339 0.423979 0.439418 0.571769
474.439 0.424181 0.440244 0.577127
474.539 0.42423 0.440694 0.580367
474.639 0.424113 0.440745 0.581357
474.74 0.423826 0.440389 0.580054
474.84 0.423372 0.439636 0.576507
474.94 0.422758 0.43851 0.570855
475.04 0.421999 0.437052 0.563322
475.141 0.421115 0.435315 0.554205
475.241 0.420131 0.433365 0.543867
475.341 0.419076 0.431274 0.532717
475.441 0.41798 0.429122 0.5212
475.541 0.416876 0.426992 0.509772
475.642 0.415796 0.424963 0.498889
475.742 0.414772 0.423115 0.488983
475.842 0.413832 0.421516 0.480448
475.942 0.413 0.420229 0.473624
476.043 0.412298 0.419302 0.468782
476.143 0.411741 0.418769 0.466114
476.243 0.411336 0.41865 0.465728
476.343 0.411086 0.418948 0.467636
476.443 0.410988 0.419649 0.471765
476.544 0.411031 0.420724 0.477948
476.644 0.411199 0.42213 0.485939
476.744 0.41147 0.423811 0.49542
476.844 0.41182 0.425699 0.506012
476.944 0.412218 0.42772 0.517294
477.045 0.412635 0.429793 0.528815
477.145 0.413038 0.431839 0.540118
477.245 0.413397 0.433776 0.55075
477.345 0.413681 0.43553 0.560289
477.446 0.413864 0.437034 0.568355
477.546 0.413923 0.43823 0.574625
477.646 0.413841 0.439075 0.57885
477.746 0.413607 0.439538 0.58086
477.846 0.413215 0.439607 0.580577
477.947 0.412665 0.439283 0.57801
478.047 0.411965 0.438585 0.573261
478.147 0.41113 0.437547 0.566518
478.247 0.410178 0.436216 0.55805
478.348 0.409134 0.434652 0.548193
478.448 0.408027 0.432926 0.537338
478.548 0.406887 0.431113 0.525915
478.648 0.405749 0.429295 0.514379
478.748 0.404646 0.427553 0.503187
478.849 0.403611 0.425965 0.492783
478.949 0.402674 0.424604 0.483577
479.049 0.401863 0.423534 0.475935
479.149 0.4012 0.422808 0.470158
479.25 0.400703 0.422465 0.466471
479.35 0.400384 0.422531 0.465019
479.45 0.400248 0.423013 0.465854
479.55 0.400292 0.423904 0.46894
479.65 0.400509 0.425179 0.474149
479.751 0.400885 0.426799 0.481268
479.851 0.401399 0.428712 0.490009
479.951 0.402026 0.430853 0.50002
480.051 0.402736 0.433148 0.510894
480.152 0.403499 0.435517 0.522196
480.252 0.404281 0.437878 0.533468
480.352 0.405047 0.440149 0.544257
480.452 0.405766 0.442249 0.554128
480.552 0.406408 0.444107 0.562683
480.653 0.406944 0.445659 0.569576
480.753 0.407353 0.446853 0.574528
480.853 0.407618 0.447653 0.577337
480.953 0.407727 0.448035 0.577888
481.053 0.407677 0.447995 0.576155
481.154 0.407469 0.447541 0.572202
481.254 0.40711 0.4467 0.566185
481.354 0.406615 0.445512 0.558341
481.454 0.406005 0.444033 0.548978
481.555 0.405302 0.442325 0.538468
481.655 0.404534 0.440463 0.527228
481.755 0.403732 0.438525 0.515702
481.855 0.402926 0.436591 0.50435
481.955 0.402149 0.434741 0.493621
482.056 0.401428 0.43305 0.483942
482.156 0.400793 0.431585 0.475697
482.256 0.400265 0.430406 0.469214
482.356 0.399864 0.429556 0.46475
482.457 0.399602 0.429068 0.462482
482.557 0.399489 0.428957 0.4625
482.657 0.399523 0.429223 0.464802
482.757 0.399701 0.429851 0.469296
482.857 0.400011 0.430808 0.475801
482.958 0.400436 0.432048 0.484058
483.058 0.400954 0.433514 0.493737
483.158 0.401539 0.435139 0.504451
483.258 0.402163 0.436846 0.515773
483.359 0.402796 0.438556 0.527249
483.459 0.403405 0.440191 0.538422
483.559 0.40396 0.441671 0.548845
483.659 0.404434 0.442924 0.558101
483.759 0.4048 0.443887 0.56582
483.86 0.405039 0.444507 0.571693
483.96 0.405133 0.444743 0.575485
484.06 0.405073 0.444572 0.577042
484.16 0.404856 0.443983 0.576301
484.261 0.404482 0.442985 0.57329
484.361 0.403963 0.441601 0.568126
484.461 0.403312 0.439869 0.561013
484.561 0.40255 0.437842 0.552233
484.661 0.401702 0.435585 0.542133
484.762 0.400798 0.43317 0.531114
484.862 0.399869 0.430678 0.519612
484.962 0.398948 0.428192 0.508084
485.062 0.398069 0.425795 0.496987
485.162 0.397262 0.423568 0.48676
485.263 0.396559 0.421582 0.477808
485.363 0.395983 0.419904 0.470486
485.463 0.395558 0.418584 0.465083
485.563 0.395298 0.417663 0.461812
485.664 0.395214 0.417163 0.4608
485.764 0.395307 0.41709 0.462085
485.864 0.395575 0.417436 0.465614
485.964 0.396007 0.418175 0.471243
486.064 0.396587 0.419266 0.478745
486.165 0.397294 0.420654 0.487819
486.265 0.3981 0.422274 0.498101
486.365 0.398976 0.424052 0.509178
486.465 0.399888 0.425907 0.520606
486.566 0.400804 0.427757 0.531928
486.666 0.401689 0.429519 0.542689
486.766 0.40251 0.431116 0.552459
486.866 0.403238 0.432476 0.560846
486.966 0.403847 0.433539 0.567513
487.067 0.404316 0.434255 0.572191
487.167 0.404628 0.434588 0.574694
487.267 0.404775 0.43452 0.574917
487.367 0.404753 0.434048 0.572851
487.468 0.404566 0.433185 0.568574
487.568 0.404224 0.431959 0.562256
487.668 0.403744 0.430414 0.554145
487.768 0.403145 0.428606 0.544562
487.868 0.402454 0.426604 0.533887
487.969 0.4017 0.42448 0.522542
488.069 0.400915 0.422315 0.510977
488.169 0.40013 0.420191 0.49965
488.269 0.399377 0.418187 0.48901
488.37 0.398687 0.416378 0.479478
488.47 0.398087 0.414831 0.47143
488.57 0.3976 0.413604 0.465184
488.67 0.397244 0.41274 0.460987
488.77 0.397033 0.412269 0.459001
488.871 0.396974 0.412205 0.459303
488.971 0.397066 0.412546 0.461877
489.071 0.397304 0.413274 0.466617
489.171 0.397675 0.414356 0.473331
489.271 0.398162 0.415743 0.481747
489.372 0.398742 0.417376 0.491526
489.472 0.399388 0.419186 0.502276
489.572 0.400071 0.421097 0.513563
489.672 0.40076 0.423029 0.524935
489.773 0.401423 0.424902 0.535934
489.873 0.402029 0.426637 0.546119
489.973 0.402549 0.428162 0.555081
490.073 0.402959 0.429414 0.562458
490.173 0.403237 0.430341 0.567954
490.274 0.403368 0.430903 0.571346
490.374 0.403341 0.431076 0.572495
490.474 0.403153 0.430853 0.571354
490.574 0.402807 0.43024 0.567964
490.675 0.402312 0.429262 0.562457
490.775 0.401682 0.427957 0.555051
490.875 0.400939 0.426378 0.546038
490.975 0.400108 0.424587 0.535774
491.075 0.399218 0.422657 0.524666
491.176 0.398299 0.420666 0.513154
491.276 0.397384 0.418694 0.501693
491.376 0.396507 0.416822 0.49074
491.476 0.395697 0.415126 0.480727
491.577 0.394984 0.413676 0.47205
491.677 0.394392 0.412532 0.465055
491.777 0.393942 0.411742 0.460016
491.877 0.393648 0.411341 0.457132
491.977 0.393519 0.411347 0.456515
492.078 0.393556 0.411762 0.458188
492.178 0.393755 0.412574 0.462081
492.278 0.394105 0.413752 0.468036
492.378 0.39459 0.415253 0.475813
492.479 0.395186 0.417019 0.485099
492.579 0.395868 0.418982 0.495522
492.679 0.396604 0.421067 0.506663
492.779 0.397364 0.423193 0.518075
492.879 0.398113 0.425276 0.5293
492.98 0.398818 0.427236 0.539889
493.08 0.399448 0.428995 0.549415
493.18 0.399976 0.430484 0.557497
493.28 0.400375 0.431645 0.563809
493.38 0.400627 0.432431 0.568096
493.481 0.400719 0.43281 0.570185
493.581 0.400641 0.432766 0.569989
493.681 0.400393 0.432299 0.567513
493.781 0.399981 0.431427 0.562852
493.882 0.399416 0.43018 0.556188
493.982 0.398715 0.428606 0.547785
494.082 0.397902 0.426763 0.537973
494.182 0.397003 0.42472 0.527141
494.282 0.396048 0.422553 0.515716
494.383 0.395069 0.420344 0.50415
494.483 0.394098 0.418174 0.492901
494.583 0.393167 0.416121 0.482412
494.683 0.392307 0.414262 0.473099
494.784 0.391543 0.41266 0.465327
494.884 0.390899 0.411373 0.459403
494.984 0.390392 0.410441 0.455557
495.084 0.390033 0.409891 0.453939
495.184 0.389829 0.409736 0.454608
495.285 0.389778 0.409971 0.457531
495.385 0.389874 0.410575 0.462587
495.485 0.390102 0.411513 0.469568
495.585 0.390445 0.412736 0.47819
495.686 0.390878 0.414181 0.488102
495.786 0.391374 0.415781 0.498902
495.886 0.391903 0.417457 0.510153
495.986 0.392434 0.419131 0.521398
496.086 0.392936 0.420724 0.532181
496.187 0.393377 0.422158 0.542064
496.287 0.39373 0.423364 0.550644
496.387 0.39397 0.424281 0.557569
496.487 0.394078 0.42486 0.562553
496.588 0.394038 0.425065 0.565388
496.688 0.393843 0.424877 0.565949
496.788 0.39349 0.42429 0.564203
496.888 0.392984 0.423316 0.560209
496.988 0.392335 0.421983 0.554111
497.089 0.391559 0.420333 0.546142
497.189 0.390679 0.418421 0.536606
497.289 0.389722 0.416313 0.525868
497.389 0.388716 0.414084 0.514343
497.489 0.387694 0.411812 0.502476
497.59 0.386689 0.40958 0.490725
497.69 0.385735 0.407469 0.479543
497.79 0.384862 0.405554 0.46936
497.89 0.384098 0.403905 0.460566
497.991 0.383469 0.40258 0.453496
498.091 0.382993 0.401626 0.448413
498.191 0.382685 0.401075 0.445505
498.291 0.382552 0.400942 0.444871
498.391 0.382596 0.401229 0.446518
498.492 0.38281 0.401919 0.450364
498.592 0.383183 0.40298 0.456238
498.692 0.383697 0.404366 0.463889
498.792 0.384329 0.406018 0.472995
498.893 0.385051 0.407866 0.483176
498.993 0.385833 0.409834 0.49401
499.093 0.386642 0.411841 0.505048
499.193 0.387444 0.413804 0.515833
499.293 0.388208 0.415642 0.525919
499.394 0.388901 0.417281 0.53489
499.494 0.389495 0.418652 0.542371
499.594 0.389967 0.419699 0.54805
499.694 0.390299 0.42038 0.551686
499.795 0.390476 0.420665 0.553119
499.895 0.390492 0.420541 0.55228
499.995 0.390348 0.420013 0.549188
500.095 0.39005 0.419101 0.543954
500.195 0.38961 0.417839 0.536775
500.296 0.389046 0.416278 0.527926
500.396 0.388383 0.414478 0.517748
500.496 0.387646 0.412512 0.506636
500.596 0.386868 0.410456 0.495025
500.697 0.386079 0.408393 0.483368
500.797 0.385312 0.406406 0.47212
500.897 0.384599 0.404572 0.461723
500.997 0.383968 0.402966 0.452582
